*****  MODTRAN3 Version 1.3  12/1/95  *****
0 CARD 1  *****T   4    3    1    0    0    0    0    0    0    0    0    0   -1   0.000  -1.00
 co2mx co2rat ch4rat h2orat t_o3rat s_o3rat scalefreon    800.00000       2.4242425       1.0000000       1.0000000       1.0000000       1.0000000       1.0000000    
0 CARD 2  *****    0    0    0    0    0    0     0.000     0.000     0.000     0.000     0.000
0 CARD 3  *****    70.000     0.000   180.000     0.000     0.000     0.000    0
0 CARD 4  *****         2      2200         2         3
0 PROGRAM WILL COMPUTE RADIANCE                
0 ATMOSPHERIC MODEL
          TEMPERATURE =    4     SUBARCTIC   SUMMER  
          WATER VAPOR =    4     SUBARCTIC   SUMMER  
          OZONE       =    4     SUBARCTIC   SUMMER  
                      M4 =     4 M5 =     4 M6 =     4 MDEF =     1
0 SLANT PATH TO SPACE
          H1    =     70.000 KM
          HMIN  =      0.000 KM
          ANGLE =    180.000 DEG
0 FREQUENCY RANGE
             IV1 =         2 CM-1  (   5000.00 MICROMETERS)
             IV2 =      2200 CM-1  (      4.55 MICROMETERS)
             IDV =         2 CM-1
           IFWHM =         3 CM-1
1
  ATMOSPHERIC PROFILES

   I     Z       P       T        N2       CNTMSLF MOL SCAT     N-1     O3 (UV)  O2 (UV)
        (KM)    (MB)    (K)            (MOL/CM2 KM)   (-)       (-)  (ATM CM/KM) (ATM CM/KM)

   1     0.00 1010.000  287.2  8.251E-01 3.725E+20 9.480E-01 2.721E-04 2.285E-03 3.538E+04
   2     1.00  896.000  281.7  6.750E-01 1.618E+20 8.574E-01 2.463E-04 2.519E-03 3.065E+04
   3     2.00  792.900  276.3  5.494E-01 7.926E+19 7.736E-01 2.223E-04 2.612E-03 2.653E+04
   4     3.00  700.000  270.9  4.455E-01 3.277E+19 6.966E-01 2.002E-04 2.706E-03 2.296E+04
   5     4.00  616.000  265.5  3.591E-01 1.299E+19 6.255E-01 1.798E-04 2.799E-03 1.984E+04
   6     5.00  541.000  260.1  2.886E-01 4.496E+18 5.607E-01 1.612E-04 2.985E-03 1.716E+04
   7     6.00  474.000  253.1  2.340E-01 1.311E+18 5.049E-01 1.452E-04 3.312E-03 1.496E+04
   8     7.00  413.000  246.1  1.879E-01 3.780E+17 4.524E-01 1.301E-04 3.498E-03 1.300E+04
   9     8.00  359.000  239.2  1.503E-01 7.598E+16 4.046E-01 1.164E-04 3.685E-03 1.129E+04
  10     9.00  310.800  232.2  1.195E-01 6.396E+15 3.608E-01 1.038E-04 5.120E-03 9.793E+03
  11    10.00  267.700  225.2  9.428E-02 5.366E+14 3.205E-01 9.216E-05 6.052E-03 8.473E+03
  12    11.00  230.000  225.2  6.959E-02 3.898E+13 2.753E-01 7.918E-05 8.392E-03 7.064E+03
  13    12.00  197.700  225.2  5.142E-02 5.861E+12 2.367E-01 6.806E-05 9.696E-03 5.914E+03
  14    13.00  170.000  225.2  3.802E-02 2.384E+12 2.035E-01 5.853E-05 1.017E-02 4.968E+03
  15    14.00  146.000  225.2  2.804E-02 1.421E+12 1.748E-01 5.026E-05 1.048E-02 4.180E+03
  16    15.00  126.000  225.2  2.089E-02 1.058E+12 1.508E-01 4.338E-05 1.055E-02 3.545E+03
  17    16.00  108.000  225.2  1.534E-02 7.774E+11 1.293E-01 3.718E-05 1.098E-02 2.990E+03
  18    17.00   92.800  225.2  1.133E-02 5.884E+11 1.111E-01 3.195E-05 1.110E-02 2.534E+03
  19    18.00   79.800  225.2  8.377E-03 4.905E+11 9.553E-02 2.747E-05 1.241E-02 2.153E+03
  20    19.00   68.600  225.2  6.191E-03 3.969E+11 8.212E-02 2.362E-05 1.395E-02 1.832E+03
  21    20.00   59.000  225.2  4.579E-03 3.068E+11 7.063E-02 2.031E-05 1.482E-02 1.562E+03
  22    21.00   50.700  225.2  3.382E-03 2.365E+11 6.069E-02 1.745E-05 1.638E-02 1.331E+03
  23    22.00   43.600  225.2  2.501E-03 1.824E+11 5.219E-02 1.501E-05 1.721E-02 1.137E+03
  24    23.00   37.500  225.2  1.850E-03 1.367E+11 4.489E-02 1.291E-05 1.660E-02 9.725E+02
  25    24.00   32.280  226.6  1.354E-03 1.008E+11 3.840E-02 1.104E-05 1.612E-02 8.276E+02
  26    25.00   27.800  228.1  9.910E-04 7.534E+10 3.286E-02 9.449E-06 1.477E-02 7.049E+02
  27    30.00   13.400  235.1  2.167E-04 1.716E+10 1.537E-02 4.419E-06 8.752E-03 3.250E+02
  28    35.00    6.610  247.2  4.770E-05 3.776E+09 7.208E-03 2.073E-06 5.547E-03 1.515E+02
  29    40.00    3.400  262.1  1.123E-05 8.887E+08 3.497E-03 1.006E-06 2.446E-03 7.325E+01
  30    45.00    1.820  273.6  2.952E-06 2.337E+08 1.793E-03 5.157E-07 7.527E-04 3.751E+01
  31    50.00    0.987  277.2  8.458E-07 6.562E+07 9.599E-04 2.761E-07 2.398E-04 2.006E+01
  32    70.00    0.071  216.6  7.169E-09 2.472E+05 8.837E-05 2.541E-08 3.532E-06 1.846E+00
  33   100.00    0.000  190.4  1.132E-13 5.734E-02 3.511E-07 1.010E-10 1.404E-08 5.614E-03
1
  ATMOSPHERIC PROFILES

   I     Z       P       T      CNTMFRN     HNO3    AEROSOL 1 AEROSOL 2 AEROSOL 3 AEROSOL 4 AER1*RH   CIRRUS         RH
        (KM)    (MB)    (K)   MOL/CM2 KM ATM CM/KM   (-)       (-)       (-)       (-)       (-)       (-)      (PERCNT)

   1     0.00 1010.000  287.2  3.085E+22 0.000E+00 0.000E+00 0.000E+00 0.000E+00 0.000E+00 0.000E+00 0.000E+00 7.516E+01
   2     1.00  896.000  281.7  1.845E+22 0.000E+00 0.000E+00 0.000E+00 0.000E+00 0.000E+00 0.000E+00 0.000E+00 6.998E+01
   3     2.00  792.900  276.3  1.167E+22 0.000E+00 0.000E+00 0.000E+00 0.000E+00 0.000E+00 0.000E+00 0.000E+00 6.983E+01
   4     3.00  700.000  270.9  6.771E+21 0.000E+00 0.000E+00 0.000E+00 0.000E+00 0.000E+00 0.000E+00 0.000E+00 6.507E+01
   5     4.00  616.000  265.5  3.834E+21 0.000E+00 0.000E+00 0.000E+00 0.000E+00 0.000E+00 0.000E+00 0.000E+00 6.042E+01
   6     5.00  541.000  260.1  2.024E+21 0.000E+00 0.000E+00 0.000E+00 0.000E+00 0.000E+00 0.000E+00 0.000E+00 5.342E+01
   7     6.00  474.000  253.1  9.849E+20 0.000E+00 0.000E+00 0.000E+00 0.000E+00 0.000E+00 0.000E+00 0.000E+00 5.039E+01
   8     7.00  413.000  246.1  4.742E+20 0.000E+00 0.000E+00 0.000E+00 0.000E+00 0.000E+00 0.000E+00 0.000E+00 4.907E+01
   9     8.00  359.000  239.2  1.902E+20 0.000E+00 0.000E+00 0.000E+00 0.000E+00 0.000E+00 0.000E+00 0.000E+00 4.116E+01
  10     9.00  310.800  232.2  4.923E+19 0.000E+00 0.000E+00 0.000E+00 0.000E+00 0.000E+00 0.000E+00 0.000E+00 2.357E+01
  11    10.00  267.700  225.2  1.267E+19 0.000E+00 0.000E+00 0.000E+00 0.000E+00 0.000E+00 0.000E+00 0.000E+00 1.416E+01
  12    11.00  230.000  225.2  2.933E+18 0.000E+00 0.000E+00 0.000E+00 0.000E+00 0.000E+00 0.000E+00 0.000E+00 3.816E+00
  13    12.00  197.700  225.2  9.776E+17 0.000E+00 0.000E+00 0.000E+00 0.000E+00 0.000E+00 0.000E+00 0.000E+00 1.480E+00
  14    13.00  170.000  225.2  5.361E+17 0.000E+00 0.000E+00 0.000E+00 0.000E+00 0.000E+00 0.000E+00 0.000E+00 9.436E-01
  15    14.00  146.000  225.2  3.554E+17 0.000E+00 0.000E+00 0.000E+00 0.000E+00 0.000E+00 0.000E+00 0.000E+00 7.284E-01
  16    15.00  126.000  225.2  2.647E+17 0.000E+00 0.000E+00 0.000E+00 0.000E+00 0.000E+00 0.000E+00 0.000E+00 6.287E-01
  17    16.00  108.000  225.2  1.945E+17 0.000E+00 0.000E+00 0.000E+00 0.000E+00 0.000E+00 0.000E+00 0.000E+00 5.388E-01
  18    17.00   92.800  225.2  1.454E+17 0.000E+00 0.000E+00 0.000E+00 0.000E+00 0.000E+00 0.000E+00 0.000E+00 4.688E-01
  19    18.00   79.800  225.2  1.142E+17 0.000E+00 0.000E+00 0.000E+00 0.000E+00 0.000E+00 0.000E+00 0.000E+00 4.280E-01
  20    19.00   68.600  225.2  8.828E+16 0.000E+00 0.000E+00 0.000E+00 0.000E+00 0.000E+00 0.000E+00 0.000E+00 3.850E-01
  21    20.00   59.000  225.2  6.675E+16 0.000E+00 0.000E+00 0.000E+00 0.000E+00 0.000E+00 0.000E+00 0.000E+00 3.385E-01
  22    21.00   50.700  225.2  5.036E+16 0.000E+00 0.000E+00 0.000E+00 0.000E+00 0.000E+00 0.000E+00 0.000E+00 2.972E-01
  23    22.00   43.600  225.2  3.804E+16 0.000E+00 0.000E+00 0.000E+00 0.000E+00 0.000E+00 0.000E+00 0.000E+00 2.610E-01
  24    23.00   37.500  225.2  2.831E+16 0.000E+00 0.000E+00 0.000E+00 0.000E+00 0.000E+00 0.000E+00 0.000E+00 2.259E-01
  25    24.00   32.280  226.6  2.081E+16 0.000E+00 0.000E+00 0.000E+00 0.000E+00 0.000E+00 0.000E+00 0.000E+00 1.670E-01
  26    25.00   27.800  228.1  1.539E+16 0.000E+00 0.000E+00 0.000E+00 0.000E+00 0.000E+00 0.000E+00 0.000E+00 1.232E-01
  27    30.00   13.400  235.1  3.434E+15 0.000E+00 0.000E+00 0.000E+00 0.000E+00 0.000E+00 0.000E+00 0.000E+00 2.896E-02
  28    35.00    6.610  247.2  7.558E+14 0.000E+00 0.000E+00 0.000E+00 0.000E+00 0.000E+00 0.000E+00 0.000E+00 4.455E-03
  29    40.00    3.400  262.1  1.779E+14 0.000E+00 0.000E+00 0.000E+00 0.000E+00 0.000E+00 0.000E+00 0.000E+00 6.444E-04
  30    45.00    1.820  273.6  4.678E+13 0.000E+00 0.000E+00 0.000E+00 0.000E+00 0.000E+00 0.000E+00 0.000E+00 1.440E-04
  31    50.00    0.987  277.2  1.327E+13 0.000E+00 0.000E+00 0.000E+00 0.000E+00 0.000E+00 0.000E+00 0.000E+00 5.983E-05
  32    70.00    0.071  216.6  7.496E+10 0.000E+00 0.000E+00 0.000E+00 0.000E+00 0.000E+00 0.000E+00 0.000E+00 8.032E-04
  33   100.00    0.000  190.4  1.435E+05 0.000E+00 0.000E+00 0.000E+00 0.000E+00 0.000E+00 0.000E+00 0.000E+00 1.427E-05
1
  ATMOSPHERIC PROFILES

   I      Z       P       T      H2O      O3       CO2      CO       CH4      N2O      O2       NH3      NO       NO2      SO2
         (KM)    (MB)    (K)  (                                    MBAR                                                       )
   1     0.00 1010.000  287.2  9.09E+00 2.41E-02 8.00E+02 0.00E+00 1.70E+00 0.00E+00 2.09E+05 0.00E+00 0.00E+00 0.00E+00 0.00E+00
   2     1.00  896.000  281.7  5.99E+00 2.94E-02 8.00E+02 0.00E+00 1.70E+00 0.00E+00 2.09E+05 0.00E+00 0.00E+00 0.00E+00 0.00E+00
   3     2.00  792.900  276.3  4.19E+00 3.38E-02 8.00E+02 0.00E+00 1.70E+00 0.00E+00 2.09E+05 0.00E+00 0.00E+00 0.00E+00 0.00E+00
   4     3.00  700.000  270.9  2.70E+00 3.89E-02 8.00E+02 0.00E+00 1.70E+00 0.00E+00 2.09E+05 0.00E+00 0.00E+00 0.00E+00 0.00E+00
   5     4.00  616.000  265.5  1.70E+00 4.48E-02 8.00E+02 0.00E+00 1.70E+00 0.00E+00 2.09E+05 0.00E+00 0.00E+00 0.00E+00 0.00E+00
   6     5.00  541.000  260.1  9.99E-01 5.33E-02 8.00E+02 0.00E+00 1.69E+00 0.00E+00 2.09E+05 0.00E+00 0.00E+00 0.00E+00 0.00E+00
   7     6.00  474.000  253.1  5.39E-01 6.56E-02 8.00E+02 0.00E+00 1.67E+00 0.00E+00 2.09E+05 0.00E+00 0.00E+00 0.00E+00 0.00E+00
   8     7.00  413.000  246.1  2.90E-01 7.74E-02 8.00E+02 0.00E+00 1.65E+00 0.00E+00 2.09E+05 0.00E+00 0.00E+00 0.00E+00 0.00E+00
   9     8.00  359.000  239.2  1.30E-01 9.11E-02 8.00E+02 0.00E+00 1.63E+00 0.00E+00 2.09E+05 0.00E+00 0.00E+00 0.00E+00 0.00E+00
  10     9.00  310.800  232.2  3.77E-02 1.42E-01 8.00E+02 0.00E+00 1.62E+00 0.00E+00 2.09E+05 0.00E+00 0.00E+00 0.00E+00 0.00E+00
  11    10.00  267.700  225.2  1.09E-02 1.89E-01 8.00E+02 0.00E+00 1.58E+00 0.00E+00 2.09E+05 0.00E+00 0.00E+00 0.00E+00 0.00E+00
  12    11.00  230.000  225.2  2.94E-03 3.05E-01 8.00E+02 0.00E+00 1.54E+00 0.00E+00 2.09E+05 0.00E+00 0.00E+00 0.00E+00 0.00E+00
  13    12.00  197.700  225.2  1.14E-03 4.10E-01 8.00E+02 0.00E+00 1.51E+00 0.00E+00 2.09E+05 0.00E+00 0.00E+00 0.00E+00 0.00E+00
  14    13.00  170.000  225.2  7.27E-04 5.00E-01 8.00E+02 0.00E+00 1.47E+00 0.00E+00 2.09E+05 0.00E+00 0.00E+00 0.00E+00 0.00E+00
  15    14.00  146.000  225.2  5.61E-04 6.00E-01 8.00E+02 0.00E+00 1.43E+00 0.00E+00 2.09E+05 0.00E+00 0.00E+00 0.00E+00 0.00E+00
  16    15.00  126.000  225.2  4.85E-04 7.00E-01 8.00E+02 0.00E+00 1.39E+00 0.00E+00 2.09E+05 0.00E+00 0.00E+00 0.00E+00 0.00E+00
  17    16.00  108.000  225.2  4.15E-04 8.50E-01 8.00E+02 0.00E+00 1.34E+00 0.00E+00 2.09E+05 0.00E+00 0.00E+00 0.00E+00 0.00E+00
  18    17.00   92.800  225.2  3.61E-04 1.00E+00 8.00E+02 0.00E+00 1.29E+00 0.00E+00 2.09E+05 0.00E+00 0.00E+00 0.00E+00 0.00E+00
  19    18.00   79.800  225.2  3.30E-04 1.30E+00 8.00E+02 0.00E+00 1.23E+00 0.00E+00 2.09E+05 0.00E+00 0.00E+00 0.00E+00 0.00E+00
  20    19.00   68.600  225.2  2.97E-04 1.70E+00 8.00E+02 0.00E+00 1.16E+00 0.00E+00 2.09E+05 0.00E+00 0.00E+00 0.00E+00 0.00E+00
  21    20.00   59.000  225.2  2.61E-04 2.10E+00 8.00E+02 0.00E+00 1.07E+00 0.00E+00 2.09E+05 0.00E+00 0.00E+00 0.00E+00 0.00E+00
  22    21.00   50.700  225.2  2.29E-04 2.70E+00 8.00E+02 0.00E+00 9.90E-01 0.00E+00 2.09E+05 0.00E+00 0.00E+00 0.00E+00 0.00E+00
  23    22.00   43.600  225.2  2.01E-04 3.30E+00 8.00E+02 0.00E+00 9.17E-01 0.00E+00 2.09E+05 0.00E+00 0.00E+00 0.00E+00 0.00E+00
  24    23.00   37.500  225.2  1.74E-04 3.70E+00 8.00E+02 0.00E+00 8.57E-01 0.00E+00 2.09E+05 0.00E+00 0.00E+00 0.00E+00 0.00E+00
  25    24.00   32.280  226.6  1.50E-04 4.20E+00 8.00E+02 0.00E+00 8.01E-01 0.00E+00 2.09E+05 0.00E+00 0.00E+00 0.00E+00 0.00E+00
  26    25.00   27.800  228.1  1.29E-04 4.50E+00 8.00E+02 0.00E+00 7.48E-01 0.00E+00 2.09E+05 0.00E+00 0.00E+00 0.00E+00 0.00E+00
  27    30.00   13.400  235.1  6.17E-05 5.70E+00 8.00E+02 0.00E+00 6.44E-01 0.00E+00 2.09E+05 0.00E+00 0.00E+00 0.00E+00 0.00E+00
  28    35.00    6.610  247.2  2.89E-05 7.70E+00 8.00E+02 0.00E+00 5.24E-01 0.00E+00 2.09E+05 0.00E+00 0.00E+00 0.00E+00 0.00E+00
  29    40.00    3.400  262.1  1.40E-05 7.00E+00 8.00E+02 0.00E+00 3.71E-01 0.00E+00 2.09E+05 0.00E+00 0.00E+00 0.00E+00 0.00E+00
  30    45.00    1.820  273.6  7.20E-06 4.20E+00 8.00E+02 0.00E+00 2.44E-01 0.00E+00 2.09E+05 0.00E+00 0.00E+00 0.00E+00 0.00E+00
  31    50.00    0.987  277.2  3.82E-06 2.50E+00 8.00E+02 0.00E+00 1.66E-01 0.00E+00 2.09E+05 0.00E+00 0.00E+00 0.00E+00 0.00E+00
  32    70.00    0.071  216.6  2.34E-07 4.00E-01 8.00E+02 0.00E+00 1.50E-01 0.00E+00 2.09E+05 0.00E+00 0.00E+00 0.00E+00 0.00E+00
  33   100.00    0.000  190.4  1.13E-10 4.00E-01 4.73E+02 0.00E+00 1.20E-01 0.00E+00 1.60E+05 0.00E+00 0.00E+00 0.00E+00 0.00E+00
1
  ATMOSPHERIC PROFILES

   I      Z       P       T     CFC-11   CFC-12   CFC-13   CFC-14   CFC-22   CFC-113  CFC-114  CFC-115  CLONO2    HNO4    CHCL2F 
                                 CCL4     N2O5  
         (KM)    (MB)    (K)  (                                 ATM CM/KM                                                     )
   1     0.00 1010.000  287.2  1.33E-05 2.27E-05 9.47E-14 9.47E-14 5.68E-06 1.80E-06 1.14E-06 9.47E-14 5.45E-07 4.11E-08 9.47E-14
                               1.23E-05 2.29E-11
   2     1.00  896.000  281.7  1.20E-05 2.06E-05 8.57E-14 8.57E-14 5.14E-06 1.63E-06 1.03E-06 8.57E-14 4.39E-07 1.83E-07 8.57E-14
                               1.11E-05 8.17E-11
   3     2.00  792.900  276.3  1.08E-05 1.86E-05 7.73E-14 7.73E-14 4.63E-06 1.47E-06 9.28E-07 7.73E-14 3.48E-07 2.97E-07 7.73E-14
                               1.01E-05 1.29E-10
   4     3.00  700.000  270.9  9.75E-06 1.67E-05 6.96E-14 6.96E-14 4.17E-06 1.32E-06 8.35E-07 6.96E-14 2.70E-07 3.86E-07 6.96E-14
                               9.05E-06 1.66E-10
   5     4.00  616.000  265.5  8.75E-06 1.50E-05 6.25E-14 6.25E-14 3.74E-06 1.19E-06 7.50E-07 6.25E-14 2.04E-07 4.53E-07 6.25E-14
                               8.13E-06 1.93E-10
   6     5.00  541.000  260.1  7.84E-06 1.34E-05 5.60E-14 5.60E-14 3.35E-06 1.06E-06 6.72E-07 5.60E-14 1.54E-07 1.02E-06 5.60E-14
                               7.27E-06 2.02E-10
   7     6.00  474.000  253.1  7.06E-06 1.21E-05 5.05E-14 5.05E-14 3.01E-06 9.59E-07 6.05E-07 5.05E-14 1.14E-07 1.47E-06 5.05E-14
                               6.53E-06 2.08E-10
   8     7.00  413.000  246.1  6.33E-06 1.09E-05 4.52E-14 4.52E-14 2.70E-06 8.59E-07 5.43E-07 4.52E-14 7.89E-08 1.81E-06 4.52E-14
                               5.85E-06 2.10E-10
   9     8.00  359.000  239.2  5.66E-06 9.70E-06 4.04E-14 4.04E-14 2.41E-06 7.68E-07 4.85E-07 4.04E-14 5.01E-08 2.06E-06 4.04E-14
                               5.22E-06 2.09E-10
  10     9.00  310.800  232.2  5.04E-06 8.65E-06 3.61E-14 3.61E-14 2.15E-06 6.84E-07 4.33E-07 3.61E-14 4.36E-08 1.77E-06 3.61E-14
                               4.65E-06 2.08E-10
  11    10.00  267.700  225.2  4.47E-06 7.67E-06 3.20E-14 3.20E-14 1.91E-06 6.07E-07 3.84E-07 3.20E-14 3.76E-08 1.51E-06 3.20E-14
                               4.13E-06 2.04E-10
  12    11.00  230.000  225.2  3.83E-06 6.58E-06 2.75E-14 2.75E-14 1.64E-06 5.21E-07 3.30E-07 2.75E-14 3.14E-08 1.25E-06 2.75E-14
                               3.55E-06 1.92E-10
  13    12.00  197.700  225.2  3.29E-06 5.65E-06 2.37E-14 2.37E-14 1.41E-06 4.47E-07 2.84E-07 2.37E-14 2.63E-08 1.03E-06 2.37E-14
                               3.05E-06 1.79E-10
  14    13.00  170.000  225.2  2.75E-06 4.79E-06 2.03E-14 2.03E-14 1.20E-06 3.77E-07 2.42E-07 2.03E-14 1.63E-07 1.15E-06 2.03E-14
                               2.54E-06 8.96E-09
  15    14.00  146.000  225.2  2.29E-06 4.05E-06 1.75E-14 1.75E-14 1.02E-06 3.18E-07 2.05E-07 1.75E-14 2.60E-07 1.21E-06 1.75E-14
                               2.11E-06 1.53E-08
  16    15.00  126.000  225.2  1.91E-06 3.44E-06 1.51E-14 1.51E-14 8.71E-07 2.69E-07 1.75E-07 1.51E-14 3.29E-07 1.24E-06 1.51E-14
                               1.76E-06 1.97E-08
  17    16.00  108.000  225.2  1.59E-06 2.91E-06 1.29E-14 1.29E-14 7.39E-07 2.26E-07 1.49E-07 1.29E-14 3.71E-07 1.23E-06 1.29E-14
                               1.46E-06 2.25E-08
  18    17.00   92.800  225.2  1.25E-06 2.38E-06 1.11E-14 1.11E-14 6.18E-07 1.84E-07 1.24E-07 1.11E-14 1.13E-06 1.58E-06 1.11E-14
                               1.13E-06 9.75E-08
  19    18.00   79.800  225.2  9.70E-07 1.95E-06 9.55E-15 9.55E-15 5.16E-07 1.48E-07 1.04E-07 9.55E-15 1.66E-06 1.81E-06 9.55E-15
                               8.65E-07 1.51E-07
  20    19.00   68.600  225.2  7.46E-07 1.59E-06 8.21E-15 8.21E-15 4.31E-07 1.20E-07 8.64E-08 8.21E-15 2.03E-06 1.95E-06 8.21E-15
                               6.52E-07 1.88E-07
  21    20.00   59.000  225.2  5.66E-07 1.30E-06 7.06E-15 7.06E-15 3.59E-07 9.60E-08 7.20E-08 7.06E-15 2.26E-06 2.01E-06 7.06E-15
                               4.81E-07 2.11E-07
  22    21.00   50.700  225.2  4.16E-07 1.04E-06 6.07E-15 6.07E-15 2.97E-07 7.51E-08 5.92E-08 6.07E-15 2.79E-06 2.13E-06 6.07E-15
                               3.47E-07 2.51E-07
  23    22.00   43.600  225.2  2.98E-07 8.24E-07 5.22E-15 5.22E-15 2.45E-07 5.82E-08 4.86E-08 5.22E-15 3.13E-06 2.18E-06 5.22E-15
                               2.40E-07 2.76E-07
  24    23.00   37.500  225.2  2.04E-07 6.50E-07 4.49E-15 4.49E-15 2.02E-07 4.46E-08 3.98E-08 4.49E-15 3.32E-06 2.18E-06 4.49E-15
                               1.57E-07 2.90E-07
  25    24.00   32.280  226.6  1.30E-07 5.07E-07 3.84E-15 3.84E-15 1.65E-07 3.34E-08 3.23E-08 3.84E-15 3.38E-06 2.12E-06 3.84E-15
                               9.21E-08 2.92E-07
  26    25.00   27.800  228.1  8.96E-08 3.90E-07 3.28E-15 3.28E-15 1.34E-07 2.50E-08 2.61E-08 3.28E-15 3.19E-06 1.91E-06 3.28E-15
                               6.19E-08 2.53E-07
  27    30.00   13.400  235.1  5.99E-09 9.04E-08 1.54E-15 1.54E-15 4.64E-08 4.48E-09 8.65E-09 1.54E-15 1.75E-06 7.83E-07 1.54E-15
                               2.69E-09 8.48E-08
  28    35.00    6.610  247.2  1.43E-10 1.54E-08 7.20E-16 7.20E-16 1.49E-08 5.16E-10 2.63E-09 7.20E-16 3.77E-07 1.06E-07 7.20E-16
                               2.85E-11 7.79E-09
  29    40.00    3.400  262.1  6.47E-13 2.13E-09 3.49E-16 3.49E-16 4.86E-09 4.30E-11 8.11E-10 3.49E-16 1.49E-08 3.48E-09 3.49E-16
                               1.38E-14 7.44E-11
  30    45.00    1.820  273.6  1.65E-14 3.82E-10 1.79E-16 1.79E-16 1.86E-09 5.76E-12 2.90E-10 1.79E-16 3.01E-10 1.57E-10 1.79E-16
                               9.99E-17 7.06E-13
  31    50.00    0.987  277.2  5.72E-16 8.17E-11 9.59E-17 9.59E-17 8.42E-10 9.50E-13 1.20E-10 9.59E-17 4.48E-12 7.32E-12 9.59E-17
                               1.05E-18 6.03E-15
  32    70.00    0.071  216.6  4.49E-21 3.45E-13 8.83E-18 8.83E-18 6.34E-11 1.55E-15 5.17E-12 8.83E-18 6.39E-19 2.83E-16 8.83E-18
                               8.72E-26 7.24E-23
  33   100.00    0.000  190.4  1.09E-30 8.70E-19 3.51E-20 3.51E-20 6.28E-14 4.60E-22 7.47E-16 3.51E-20 2.84E-35 1.17E-31 3.51E-20
                               1.79E-38 0.00E+00


 CASE 3A: GIVEN H1,H2=SPACE,ANGLE



 TANGENT PATH WITH H1 =     70.000 AND ANGLE =    180.000 INTERSECTS THE EARTH

          H2 HAS BEEN RESET TO 0.0 AND LEN TO 0



 SLANT PATH PARAMETERS IN STANDARD FORM

          H1      =     70.000 KM
          H2      =      0.000 KM
          ANGLE   =    180.000 DEG
          PHI     =      0.000 DEG
          HMIN    =      0.000 KM
          LEN     =          0
1CALCULATION OF THE REFRACTED PATH THROUGH THE ATMOSPHERE


  I       ALTITUDE        THETA  DRANGE    RANGE    DBETA     BETA     PHI     DBEND  BENDING    PBAR    TBAR   RHOBAR
      FROM       TO
      (KM)      (KM)      (DEG)    (KM)     (KM)    (DEG)    (DEG)    (DEG)    (DEG)    (DEG)    (MB)    (K)  (GM CM-3)

          H2 TO H1

  1    0.000    1.000    0.000    1.000    1.000    0.000    0.000  180.000    0.000    0.000  952.816  284.49 1.17E-03
  2    1.000    2.000    0.000    1.000    2.000    0.000    0.000  180.000    0.000    0.000  844.284  279.04 1.05E-03
  3    2.000    3.000    0.000    1.000    3.000    0.000    0.000  180.000    0.000    0.000  746.297  273.64 9.49E-04
  4    3.000    4.000    0.000    1.000    4.000    0.000    0.000  180.000    0.000    0.000  657.859  268.24 8.53E-04
  5    4.000    5.000    0.000    1.000    5.000    0.000    0.000  180.000    0.000    0.000  578.372  262.84 7.66E-04
  6    5.000    6.000    0.000    1.000    6.000    0.000    0.000  180.000    0.000    0.000  507.348  256.65 6.88E-04
  7    6.000    7.000    0.000    1.000    7.000    0.000    0.000  180.000    0.000    0.000  443.357  249.65 6.18E-04
  8    7.000    8.000    0.000    1.000    8.000    0.000    0.000  180.000    0.000    0.000  385.872  242.70 5.53E-04
  9    8.000    9.000    0.000    1.000    9.000    0.000    0.000  180.000    0.000    0.000  334.781  235.75 4.94E-04
 10    9.000   10.000    0.000    1.000   10.000    0.000    0.000  180.000    0.000    0.000  289.140  228.75 4.40E-04
 11   10.000   11.000    0.000    1.000   11.000    0.000    0.000  180.000    0.000    0.000  248.850  225.20 3.84E-04
 12   11.000   12.000    0.000    1.000   12.000    0.000    0.000  180.000    0.000    0.000  213.850  225.20 3.30E-04
 13   12.000   13.000    0.000    1.000   13.000    0.000    0.000  180.000    0.000    0.000  183.850  225.20 2.84E-04
 14   13.000   14.000    0.000    1.000   14.000    0.000    0.000  180.000    0.000    0.000  158.000  225.20 2.44E-04
 15   14.000   15.000    0.000    1.000   15.000    0.000    0.000  180.000    0.000    0.000  136.000  225.20 2.10E-04
 16   15.000   16.000    0.000    1.000   16.000    0.000    0.000  180.000    0.000    0.000  117.000  225.20 1.81E-04
 17   16.000   17.000    0.000    1.000   17.000    0.000    0.000  180.000    0.000    0.000  100.400  225.20 1.55E-04
 18   17.000   18.000    0.000    1.000   18.000    0.000    0.000  180.000    0.000    0.000   86.300  225.20 1.33E-04
 19   18.000   19.000    0.000    1.000   19.000    0.000    0.000  180.000    0.000    0.000   74.200  225.20 1.15E-04
 20   19.000   20.000    0.000    1.000   20.000    0.000    0.000  180.000    0.000    0.000   63.800  225.20 9.85E-05
 21   20.000   21.000    0.000    1.000   21.000    0.000    0.000  180.000    0.000    0.000   54.850  225.20 8.47E-05
 22   21.000   22.000    0.000    1.000   22.000    0.000    0.000  180.000    0.000    0.000   47.150  225.20 7.28E-05
 23   22.000   23.000    0.000    1.000   23.000    0.000    0.000  180.000    0.000    0.000   40.550  225.20 6.26E-05
 24   23.000   24.000    0.000    1.000   24.000    0.000    0.000  180.000    0.000    0.000   34.893  225.88 5.37E-05
 25   24.000   25.000    0.000    1.000   25.000    0.000    0.000  180.000    0.000    0.000   30.042  227.33 4.59E-05
 26   25.000   30.000    0.000    5.000   30.000    0.000    0.000  180.000    0.000    0.000   20.636  231.14 2.97E-05
 27   30.000   35.000    0.000    5.000   35.000    0.000    0.000  180.000    0.000    0.000   10.033  240.34 1.39E-05
 28   35.000   40.000    0.000    5.000   40.000    0.000    0.000  180.000    0.000    0.000    5.020  253.69 6.63E-06
 29   40.000   45.000    0.000    5.000   45.000    0.000    0.000  180.000    0.000    0.000    2.616  267.17 3.30E-06
 30   45.000   50.000    0.000    5.000   50.000    0.000    0.000  180.000    0.000    0.000    1.404  275.21 1.72E-06
 31   50.000   70.000    0.000   20.000   70.000    0.000    0.000  180.000    0.000    0.000    0.513  256.79 4.72E-07




1CUMULATIVE ABSORBER AMOUNTS FOR THE PATH FROM H1 TO Z

  J     Z        TBAR     HNO3        O3 UV      CNTMSLF1   CNTMSLF2    CNTMFRN      O2
       (KM)       (K)   (ATM CM)    (ATM CM)    (MOL CM-2)  (MOL CM-2)  (MOL CM-2)(MOL CM-2)

  1   50.000   256.79   0.000E+00   1.120E-03   2.343E+08   2.552E+08   5.098E+13   1.527E+02
  2   45.000   275.21   0.000E+00   3.362E-03   8.959E+08   6.373E+08   1.839E+14   2.921E+02
  3   40.000   267.17   0.000E+00   1.055E-02   3.348E+09   2.601E+09   6.747E+14   5.591E+02
  4   35.000   253.69   0.000E+00   2.948E-02   1.333E+10   1.433E+10   2.672E+15   1.097E+03
  5   30.000   240.34   0.000E+00   6.462E-02   5.753E+10   8.266E+10   1.152E+16   2.234E+03
  6   25.000   231.14   0.000E+00   1.221E-01   2.541E+11   4.369E+11   5.137E+16   4.687E+03
  7   24.000   227.33   0.000E+00   1.376E-01   3.416E+11   6.037E+11   6.933E+16   5.452E+03
  8   23.000   225.88   0.000E+00   1.539E-01   4.595E+11   8.332E+11   9.370E+16   6.350E+03
  9   22.000   225.20   0.000E+00   1.708E-01   6.179E+11   1.145E+12   1.266E+17   7.403E+03
 10   21.000   225.20   0.000E+00   1.876E-01   8.262E+11   1.555E+12   1.706E+17   8.635E+03
 11   20.000   225.20   0.000E+00   2.032E-01   1.096E+12   2.086E+12   2.287E+17   1.008E+04
 12   19.000   225.20   0.000E+00   2.176E-01   1.446E+12   2.774E+12   3.057E+17   1.177E+04
 13   18.000   225.20   0.000E+00   2.308E-01   1.888E+12   3.643E+12   4.064E+17   1.376E+04
 14   17.000   225.20   0.000E+00   2.425E-01   2.426E+12   4.701E+12   5.355E+17   1.610E+04
 15   16.000   225.20   0.000E+00   2.536E-01   3.105E+12   6.036E+12   7.043E+17   1.885E+04
 16   15.000   225.20   0.000E+00   2.644E-01   4.015E+12   7.826E+12   9.321E+17   2.211E+04
 17   14.000   225.20   0.000E+00   2.749E-01   5.246E+12   1.025E+13   1.240E+18   2.597E+04
 18   13.000   225.20   0.000E+00   2.852E-01   7.107E+12   1.391E+13   1.680E+18   3.053E+04
 19   12.000   225.20   0.000E+00   2.951E-01   1.097E+13   2.151E+13   2.414E+18   3.596E+04
 20   11.000   225.20   0.000E+00   3.042E-01   2.845E+13   5.588E+13   4.194E+18   4.243E+04
 21   10.000   225.20   0.000E+00   3.114E-01   2.182E+14   4.291E+14   1.085E+19   5.018E+04
 22    9.000   228.75   0.000E+00   3.170E-01   2.583E+15   4.846E+15   3.778E+19   5.929E+04
 23    8.000   235.75   0.000E+00   3.214E-01   3.070E+16   5.190E+16   1.421E+20   6.982E+04
 24    7.000   242.70   0.000E+00   3.250E-01   2.189E+17   3.306E+17   4.530E+20   8.194E+04
 25    6.000   249.65   0.000E+00   3.284E-01   9.690E+17   1.296E+18   1.152E+21   9.590E+04
 26    5.000   256.65   0.000E+00   3.315E-01   3.553E+18   4.121E+18   2.594E+21   1.119E+05
 27    4.000   262.84   0.000E+00   3.344E-01   1.156E+19   1.150E+19   5.428E+21   1.304E+05
 28    3.000   268.24   0.000E+00   3.372E-01   3.294E+19   2.798E+19   1.059E+22   1.518E+05
 29    2.000   273.64   0.000E+00   3.398E-01   8.557E+19   6.068E+19   1.959E+22   1.765E+05
 30    1.000   279.04   0.000E+00   3.424E-01   2.012E+20   1.152E+20   3.440E+22   2.050E+05
 31    0.000   284.49   0.000E+00   3.448E-01   4.539E+20   1.960E+20   5.851E+22   2.380E+05



1 J     Z       N2 CONT    MOL SCAT       AER 1       AER 2       AER 3       AER 4       CIRRUS
       (KM)

  1   50.000   3.516E-06   7.307E-03   0.000E+00   0.000E+00   0.000E+00   0.000E+00   0.000E+00
  2   45.000   1.194E-05   1.397E-02   0.000E+00   0.000E+00   0.000E+00   0.000E+00   0.000E+00
  3   40.000   4.292E-05   2.673E-02   0.000E+00   0.000E+00   0.000E+00   0.000E+00   0.000E+00
  4   35.000   1.690E-04   5.238E-02   0.000E+00   0.000E+00   0.000E+00   0.000E+00   0.000E+00
  5   30.000   7.273E-04   1.063E-01   0.000E+00   0.000E+00   0.000E+00   0.000E+00   0.000E+00
  6   25.000   3.274E-03   2.213E-01   0.000E+00   0.000E+00   0.000E+00   0.000E+00   0.000E+00
  7   24.000   4.437E-03   2.569E-01   0.000E+00   0.000E+00   0.000E+00   0.000E+00   0.000E+00
  8   23.000   6.026E-03   2.985E-01   0.000E+00   0.000E+00   0.000E+00   0.000E+00   0.000E+00
  9   22.000   8.185E-03   3.469E-01   0.000E+00   0.000E+00   0.000E+00   0.000E+00   0.000E+00
 10   21.000   1.110E-02   4.032E-01   0.000E+00   0.000E+00   0.000E+00   0.000E+00   0.000E+00
 11   20.000   1.505E-02   4.688E-01   0.000E+00   0.000E+00   0.000E+00   0.000E+00   0.000E+00
 12   19.000   2.040E-02   5.450E-01   0.000E+00   0.000E+00   0.000E+00   0.000E+00   0.000E+00
 13   18.000   2.763E-02   6.337E-01   0.000E+00   0.000E+00   0.000E+00   0.000E+00   0.000E+00
 14   17.000   3.741E-02   7.368E-01   0.000E+00   0.000E+00   0.000E+00   0.000E+00   0.000E+00
 15   16.000   5.064E-02   8.567E-01   0.000E+00   0.000E+00   0.000E+00   0.000E+00   0.000E+00
 16   15.000   6.862E-02   9.965E-01   0.000E+00   0.000E+00   0.000E+00   0.000E+00   0.000E+00
 17   14.000   9.290E-02   1.159E+00   0.000E+00   0.000E+00   0.000E+00   0.000E+00   0.000E+00
 18   13.000   1.257E-01   1.348E+00   0.000E+00   0.000E+00   0.000E+00   0.000E+00   0.000E+00
 19   12.000   1.701E-01   1.567E+00   0.000E+00   0.000E+00   0.000E+00   0.000E+00   0.000E+00
 20   11.000   2.301E-01   1.823E+00   0.000E+00   0.000E+00   0.000E+00   0.000E+00   0.000E+00
 21   10.000   3.114E-01   2.120E+00   0.000E+00   0.000E+00   0.000E+00   0.000E+00   0.000E+00
 22    9.000   4.178E-01   2.461E+00   0.000E+00   0.000E+00   0.000E+00   0.000E+00   0.000E+00
 23    8.000   5.521E-01   2.843E+00   0.000E+00   0.000E+00   0.000E+00   0.000E+00   0.000E+00
 24    7.000   7.205E-01   3.271E+00   0.000E+00   0.000E+00   0.000E+00   0.000E+00   0.000E+00
 25    6.000   9.306E-01   3.749E+00   0.000E+00   0.000E+00   0.000E+00   0.000E+00   0.000E+00
 26    5.000   1.191E+00   4.281E+00   0.000E+00   0.000E+00   0.000E+00   0.000E+00   0.000E+00
 27    4.000   1.514E+00   4.874E+00   0.000E+00   0.000E+00   0.000E+00   0.000E+00   0.000E+00
 28    3.000   1.914E+00   5.534E+00   0.000E+00   0.000E+00   0.000E+00   0.000E+00   0.000E+00
 29    2.000   2.410E+00   6.269E+00   0.000E+00   0.000E+00   0.000E+00   0.000E+00   0.000E+00
 30    1.000   3.020E+00   7.083E+00   0.000E+00   0.000E+00   0.000E+00   0.000E+00   0.000E+00
 31    0.000   3.768E+00   7.985E+00   0.000E+00   0.000E+00   0.000E+00   0.000E+00   0.000E+00



1  J    Z       H2O       O3        CO2       CO        CH4       N2O       O2        NH3       NO        NO2       SO2
      (KM)    (                                                      ATM CM                                             )

   1   50.00  3.19E-03  1.12E-03  5.84E-01  0.00E+00  1.17E-04  0.00E+00  1.53E+02  0.00E+00  0.00E+00  0.00E+00  0.00E+00
   2   45.00  6.51E-03  3.36E-03  1.12E+00  0.00E+00  2.55E-04  0.00E+00  2.92E+02  0.00E+00  0.00E+00  0.00E+00  0.00E+00
   3   40.00  1.29E-02  1.05E-02  2.14E+00  0.00E+00  6.51E-04  0.00E+00  5.58E+02  0.00E+00  0.00E+00  0.00E+00  0.00E+00
   4   35.00  2.57E-02  2.95E-02  4.19E+00  0.00E+00  1.81E-03  0.00E+00  1.09E+03  0.00E+00  0.00E+00  0.00E+00  0.00E+00
   5   30.00  5.26E-02  6.46E-02  8.50E+00  0.00E+00  4.98E-03  0.00E+00  2.22E+03  0.00E+00  0.00E+00  0.00E+00  0.00E+00
   6   25.00  1.09E-01  1.22E-01  1.77E+01  0.00E+00  1.30E-02  0.00E+00  4.62E+03  0.00E+00  0.00E+00  0.00E+00  0.00E+00
   7   24.00  1.27E-01  1.38E-01  2.05E+01  0.00E+00  1.58E-02  0.00E+00  5.37E+03  0.00E+00  0.00E+00  0.00E+00  0.00E+00
   8   23.00  1.47E-01  1.54E-01  2.39E+01  0.00E+00  1.92E-02  0.00E+00  6.23E+03  0.00E+00  0.00E+00  0.00E+00  0.00E+00
   9   22.00  1.70E-01  1.71E-01  2.77E+01  0.00E+00  2.35E-02  0.00E+00  7.25E+03  0.00E+00  0.00E+00  0.00E+00  0.00E+00
  10   21.00  1.97E-01  1.88E-01  3.22E+01  0.00E+00  2.89E-02  0.00E+00  8.42E+03  0.00E+00  0.00E+00  0.00E+00  0.00E+00
  11   20.00  2.27E-01  2.03E-01  3.75E+01  0.00E+00  3.57E-02  0.00E+00  9.79E+03  0.00E+00  0.00E+00  0.00E+00  0.00E+00
  12   19.00  2.62E-01  2.18E-01  4.36E+01  0.00E+00  4.42E-02  0.00E+00  1.14E+04  0.00E+00  0.00E+00  0.00E+00  0.00E+00
  13   18.00  3.01E-01  2.31E-01  5.07E+01  0.00E+00  5.47E-02  0.00E+00  1.32E+04  0.00E+00  0.00E+00  0.00E+00  0.00E+00
  14   17.00  3.44E-01  2.43E-01  5.89E+01  0.00E+00  6.77E-02  0.00E+00  1.54E+04  0.00E+00  0.00E+00  0.00E+00  0.00E+00
  15   16.00  3.92E-01  2.54E-01  6.85E+01  0.00E+00  8.35E-02  0.00E+00  1.79E+04  0.00E+00  0.00E+00  0.00E+00  0.00E+00
  16   15.00  4.48E-01  2.64E-01  7.97E+01  0.00E+00  1.03E-01  0.00E+00  2.08E+04  0.00E+00  0.00E+00  0.00E+00  0.00E+00
  17   14.00  5.13E-01  2.75E-01  9.27E+01  0.00E+00  1.26E-01  0.00E+00  2.42E+04  0.00E+00  0.00E+00  0.00E+00  0.00E+00
  18   13.00  5.93E-01  2.85E-01  1.08E+02  0.00E+00  1.53E-01  0.00E+00  2.81E+04  0.00E+00  0.00E+00  0.00E+00  0.00E+00
  19   12.00  7.07E-01  2.95E-01  1.25E+02  0.00E+00  1.86E-01  0.00E+00  3.27E+04  0.00E+00  0.00E+00  0.00E+00  0.00E+00
  20   11.00  9.43E-01  3.04E-01  1.46E+02  0.00E+00  2.25E-01  0.00E+00  3.81E+04  0.00E+00  0.00E+00  0.00E+00  0.00E+00
  21   10.00  1.70E+00  3.11E-01  1.70E+02  0.00E+00  2.71E-01  0.00E+00  4.43E+04  0.00E+00  0.00E+00  0.00E+00  0.00E+00
  22    9.00  4.39E+00  3.17E-01  1.97E+02  0.00E+00  3.25E-01  0.00E+00  5.14E+04  0.00E+00  0.00E+00  0.00E+00  0.00E+00
  23    8.00  1.37E+01  3.21E-01  2.27E+02  0.00E+00  3.87E-01  0.00E+00  5.94E+04  0.00E+00  0.00E+00  0.00E+00  0.00E+00
  24    7.00  3.84E+01  3.25E-01  2.61E+02  0.00E+00  4.57E-01  0.00E+00  6.83E+04  0.00E+00  0.00E+00  0.00E+00  0.00E+00
  25    6.00  8.84E+01  3.28E-01  3.00E+02  0.00E+00  5.37E-01  0.00E+00  7.83E+04  0.00E+00  0.00E+00  0.00E+00  0.00E+00
  26    5.00  1.81E+02  3.32E-01  3.42E+02  0.00E+00  6.26E-01  0.00E+00  8.94E+04  0.00E+00  0.00E+00  0.00E+00  0.00E+00
  27    4.00  3.45E+02  3.34E-01  3.90E+02  0.00E+00  7.26E-01  0.00E+00  1.02E+05  0.00E+00  0.00E+00  0.00E+00  0.00E+00
  28    3.00  6.14E+02  3.37E-01  4.42E+02  0.00E+00  8.38E-01  0.00E+00  1.16E+05  0.00E+00  0.00E+00  0.00E+00  0.00E+00
  29    2.00  1.04E+03  3.40E-01  5.01E+02  0.00E+00  9.63E-01  0.00E+00  1.31E+05  0.00E+00  0.00E+00  0.00E+00  0.00E+00
  30    1.00  1.66E+03  3.42E-01  5.66E+02  0.00E+00  1.10E+00  0.00E+00  1.48E+05  0.00E+00  0.00E+00  0.00E+00  0.00E+00
  31    0.00  2.59E+03  3.45E-01  6.38E+02  0.00E+00  1.25E+00  0.00E+00  1.67E+05  0.00E+00  0.00E+00  0.00E+00  0.00E+00



1  J    Z      CFC-11    CFC-12    CFC-13    CFC-14    CFC-22    CFC-113   CFC-114   CFC-115   CLONO2     HNO4     CHCL2F 
                CCL4      N2O5  
      (KM)    (                                                   ATM CM                                                )

   1   50.00  9.74E-16  2.98E-10  7.30E-16  7.30E-16  6.02E-09  2.96E-12  7.30E-10  7.30E-16  5.68E-12  1.44E-11  7.30E-16
              1.29E-18  6.62E-15
   2   45.00  2.46E-14  1.27E-09  1.40E-15  1.40E-15  1.24E-08  1.63E-11  1.69E-09  1.40E-15  3.58E-10  2.58E-10  1.40E-15
              1.10E-16  7.41E-13
   3   40.00  8.83E-13  6.36E-09  2.67E-15  2.67E-15  2.81E-08  1.09E-10  4.23E-09  2.67E-15  1.91E-08  5.62E-09  2.67E-15
              1.40E-14  7.99E-11
   4   35.00  1.33E-10  3.98E-08  5.23E-15  5.23E-15  7.29E-08  1.06E-09  1.20E-08  5.23E-15  5.80E-07  1.55E-07  5.23E-15
              1.87E-11  8.38E-09
   5   30.00  7.96E-09  2.51E-07  1.06E-14  1.06E-14  2.12E-07  1.02E-08  3.72E-08  1.06E-14  5.05E-06  1.85E-06  1.06E-14
              2.95E-09  1.70E-07
   6   25.00  1.62E-07  1.28E-06  2.21E-14  2.21E-14  6.25E-07  6.98E-08  1.16E-07  2.21E-14  1.71E-05  8.16E-06  2.21E-14
              9.74E-08  9.39E-07
   7   24.00  2.71E-07  1.72E-06  2.57E-14  2.57E-14  7.74E-07  9.88E-08  1.45E-07  2.57E-14  2.03E-05  1.02E-05  2.57E-14
              1.73E-07  1.21E-06
   8   23.00  4.36E-07  2.30E-06  2.98E-14  2.98E-14  9.57E-07  1.38E-07  1.81E-07  2.98E-14  2.37E-05  1.23E-05  2.98E-14
              2.95E-07  1.50E-06
   9   22.00  6.84E-07  3.03E-06  3.47E-14  3.47E-14  1.18E-06  1.89E-07  2.25E-07  3.47E-14  2.69E-05  1.45E-05  3.47E-14
              4.91E-07  1.78E-06
  10   21.00  1.04E-06  3.96E-06  4.03E-14  4.03E-14  1.45E-06  2.55E-07  2.79E-07  4.03E-14  2.99E-05  1.67E-05  4.03E-14
              7.81E-07  2.05E-06
  11   20.00  1.53E-06  5.12E-06  4.68E-14  4.68E-14  1.78E-06  3.40E-07  3.44E-07  4.68E-14  3.24E-05  1.87E-05  4.68E-14
              1.19E-06  2.28E-06
  12   19.00  2.18E-06  6.56E-06  5.45E-14  5.45E-14  2.17E-06  4.47E-07  4.23E-07  5.45E-14  3.45E-05  2.07E-05  5.45E-14
              1.75E-06  2.48E-06
  13   18.00  3.03E-06  8.33E-06  6.33E-14  6.33E-14  2.64E-06  5.81E-07  5.18E-07  6.33E-14  3.64E-05  2.26E-05  6.33E-14
              2.51E-06  2.65E-06
  14   17.00  4.13E-06  1.05E-05  7.36E-14  7.36E-14  3.21E-06  7.46E-07  6.32E-07  7.36E-14  3.78E-05  2.43E-05  7.36E-14
              3.50E-06  2.77E-06
  15   16.00  5.54E-06  1.31E-05  8.56E-14  8.56E-14  3.88E-06  9.50E-07  7.68E-07  8.56E-14  3.85E-05  2.57E-05  8.56E-14
              4.79E-06  2.83E-06
  16   15.00  7.29E-06  1.63E-05  9.96E-14  9.96E-14  4.69E-06  1.20E-06  9.29E-07  9.96E-14  3.89E-05  2.69E-05  9.96E-14
              6.39E-06  2.85E-06
  17   14.00  9.39E-06  2.00E-05  1.16E-13  1.16E-13  5.63E-06  1.49E-06  1.12E-06  1.16E-13  3.92E-05  2.82E-05  1.16E-13
              8.33E-06  2.87E-06
  18   13.00  1.19E-05  2.44E-05  1.35E-13  1.35E-13  6.74E-06  1.84E-06  1.34E-06  1.35E-13  3.94E-05  2.93E-05  1.35E-13
              1.06E-05  2.88E-06
  19   12.00  1.49E-05  2.97E-05  1.57E-13  1.57E-13  8.04E-06  2.25E-06  1.60E-06  1.57E-13  3.95E-05  3.04E-05  1.57E-13
              1.34E-05  2.89E-06
  20   11.00  1.85E-05  3.58E-05  1.82E-13  1.82E-13  9.56E-06  2.73E-06  1.91E-06  1.82E-13  3.95E-05  3.16E-05  1.82E-13
              1.67E-05  2.89E-06
  21   10.00  2.26E-05  4.29E-05  2.12E-13  2.12E-13  1.13E-05  3.29E-06  2.27E-06  2.12E-13  3.95E-05  3.29E-05  2.12E-13
              2.06E-05  2.89E-06
  22    9.00  2.73E-05  5.10E-05  2.46E-13  2.46E-13  1.34E-05  3.94E-06  2.67E-06  2.46E-13  3.96E-05  3.46E-05  2.46E-13
              2.49E-05  2.89E-06
  23    8.00  3.27E-05  6.02E-05  2.84E-13  2.84E-13  1.56E-05  4.66E-06  3.13E-06  2.84E-13  3.96E-05  3.65E-05  2.84E-13
              2.99E-05  2.89E-06
  24    7.00  3.87E-05  7.05E-05  3.27E-13  3.27E-13  1.82E-05  5.48E-06  3.65E-06  3.27E-13  3.97E-05  3.84E-05  3.27E-13
              3.54E-05  2.89E-06
  25    6.00  4.54E-05  8.19E-05  3.75E-13  3.75E-13  2.10E-05  6.38E-06  4.22E-06  3.75E-13  3.98E-05  4.01E-05  3.75E-13
              4.16E-05  2.89E-06
  26    5.00  5.28E-05  9.47E-05  4.28E-13  4.28E-13  2.42E-05  7.40E-06  4.86E-06  4.28E-13  3.99E-05  4.13E-05  4.28E-13
              4.85E-05  2.89E-06
  27    4.00  6.11E-05  1.09E-04  4.87E-13  4.87E-13  2.78E-05  8.52E-06  5.57E-06  4.87E-13  4.01E-05  4.20E-05  4.87E-13
              5.62E-05  2.89E-06
  28    3.00  7.03E-05  1.25E-04  5.53E-13  5.53E-13  3.17E-05  9.77E-06  6.36E-06  5.53E-13  4.03E-05  4.25E-05  5.53E-13
              6.48E-05  2.89E-06
  29    2.00  8.06E-05  1.42E-04  6.26E-13  6.26E-13  3.61E-05  1.12E-05  7.24E-06  6.26E-13  4.06E-05  4.28E-05  6.26E-13
              7.43E-05  2.89E-06
  30    1.00  9.20E-05  1.62E-04  7.08E-13  7.08E-13  4.10E-05  1.27E-05  8.22E-06  7.08E-13  4.10E-05  4.30E-05  7.08E-13
              8.49E-05  2.89E-06
  31    0.00  1.05E-04  1.84E-04  7.98E-13  7.98E-13  4.64E-05  1.44E-05  9.30E-06  7.98E-13  4.15E-05  4.32E-05  7.98E-13
              9.66E-05  2.89E-06


0SUMMARY OF THE GEOMETRY CALCULATION

          H1      =     70.000 KM
          H2      =      0.000 KM
          ANGLE   =    180.000 DEG
          RANGE   =     70.000 KM
          BETA    =      0.000 DEG
          PHI     =      0.000 DEG
          HMIN    =      0.000 KM
          BENDING =      0.000 DEG
          LEN     =          0




1EQUIVALENT SEA LEVEL TOTAL ABSORBER AMOUNTS

                 HNO3      O3 UV       CNTMSLF1    CNTMSLF2   CNTMFRN
               (ATM CM)   (ATM CM)     (MOL CM-2)  (MOL CM-2)  (MOL CM-2)  (MOL CM-2)

             0.000E+00   3.448E-01   4.539E+20   1.960E+20   5.851E+22


              N2 CONT    MOL SCAT       AER 1       AER 2       AER 3       AER 4     CIRRUS      MEAN RH
                                                                                                  (PRCNT)

             3.768E+00   7.985E+00   0.000E+00   0.000E+00   0.000E+00   0.000E+00   0.000E+00        0.00


                 H2O        O3          CO2         CO          CH4         N2O          O2
               (                                        ATM CM                            )

             2.587E+03   3.448E-01   6.384E+02   0.000E+00   1.255E+00   0.000E+00   1.668E+05

                 NH3        NO          NO2         SO2
                 (               ATM CM               )

             0.000E+00   0.000E+00   0.000E+00   0.000E+00

             CFC-11      CFC-12      CFC-13      CFC-14      CFC-22      CFC-113     CFC-114
                 (                                      ATM CM                            )

             1.046E-04   1.835E-04   7.980E-13   7.980E-13   4.639E-05   1.443E-05   9.300E-06

             CFC-115     CLONO2       HNO4       CHCL2F       CCL4        N2O5  
                 (                                      ATM CM                            )

             7.980E-13   4.153E-05   4.316E-05   7.980E-13   9.660E-05   2.890E-06
  iv           -5
  iv            0
1                                             RADIANCE(WATTS/CM2-STER-XXX)
0  FREQ   WAVLEN    PATH THERMAL      SURFACE EMISSION    SURFACE REFLECTED     TOTAL RADIANCE   INTEGRAL    TOTAL
  (CM-1) (MICRN)    (CM-1)   (MICRN)    (CM-1)   (MICRN)    (CM-1)   (MICRN)    (CM-1)   (MICRN)    (CM-1)   TRANS

      2. 4999.998  7.88E-10  3.15E-13  3.80E-10  1.52E-13  0.00E+00  0.00E+00  1.17E-09  4.67E-13  1.17E-09  0.33691
      4. 2500.000  2.76E-09  4.42E-12  1.09E-09  1.74E-12  0.00E+00  0.00E+00  3.85E-09  6.16E-12  8.87E-09  0.28800
      6. 1666.666  7.02E-09  2.53E-11  1.22E-09  4.38E-12  0.00E+00  0.00E+00  8.24E-09  2.97E-11  2.53E-08  0.17026
      8. 1250.000  1.32E-08  8.42E-11  1.17E-09  7.47E-12  0.00E+00  0.00E+00  1.43E-08  9.17E-11  5.40E-08  0.08520
     10. 1000.000  2.11E-08  2.11E-10  5.39E-10  5.39E-12  0.00E+00  0.00E+00  2.16E-08  2.16E-10  9.73E-08  0.03043
     12.  833.333  2.98E-08  4.29E-10  4.75E-11  6.84E-13  0.00E+00  0.00E+00  2.98E-08  4.29E-10  1.57E-07  0.00201
     14.  714.286  3.93E-08  7.69E-10  1.82E-13  3.56E-15  0.00E+00  0.00E+00  3.93E-08  7.69E-10  2.35E-07  0.00001
     16.  625.000  5.00E-08  1.28E-09  1.24E-15  3.17E-17  0.00E+00  0.00E+00  5.00E-08  1.28E-09  3.35E-07  0.00000
     18.  555.555  6.07E-08  1.97E-09  1.05E-15  3.41E-17  0.00E+00  0.00E+00  6.07E-08  1.97E-09  4.57E-07  0.00000
     20.  500.000  7.54E-08  3.02E-09  1.05E-15  4.21E-17  0.00E+00  0.00E+00  7.54E-08  3.02E-09  6.08E-07  0.00000
     22.  454.545  9.33E-08  4.51E-09  1.67E-21  8.10E-23  0.00E+00  0.00E+00  9.33E-08  4.51E-09  7.94E-07  0.00000
     24.  416.667  1.07E-07  6.19E-09  7.08E-21  4.08E-22  0.00E+00  0.00E+00  1.07E-07  6.19E-09  1.01E-06  0.00000
     26.  384.615  1.24E-07  8.39E-09  6.49E-21  4.39E-22  0.00E+00  0.00E+00  1.24E-07  8.39E-09  1.26E-06  0.00000
     28.  357.143  1.47E-07  1.15E-08  3.51E-24  2.75E-25  0.00E+00  0.00E+00  1.47E-07  1.15E-08  1.55E-06  0.00000
     30.  333.333  1.67E-07  1.50E-08  2.02E-24  1.82E-25  0.00E+00  0.00E+00  1.67E-07  1.50E-08  1.89E-06  0.00000
     32.  312.500  1.83E-07  1.87E-08  4.59E-33  4.70E-34  0.00E+00  0.00E+00  1.83E-07  1.87E-08  2.25E-06  0.00000
     34.  294.118  2.03E-07  2.35E-08  1.12E-44  1.40E-45  0.00E+00  0.00E+00  2.03E-07  2.35E-08  2.66E-06  0.00000
     36.  277.778  2.22E-07  2.88E-08  0.00E+00  0.00E+00  0.00E+00  0.00E+00  2.22E-07  2.88E-08  3.10E-06  0.00000
     38.  263.158  2.42E-07  3.49E-08  0.00E+00  0.00E+00  0.00E+00  0.00E+00  2.42E-07  3.49E-08  3.59E-06  0.00000
     40.  250.000  2.68E-07  4.29E-08  0.00E+00  0.00E+00  0.00E+00  0.00E+00  2.68E-07  4.29E-08  4.12E-06  0.00000
     42.  238.095  3.02E-07  5.32E-08  0.00E+00  0.00E+00  0.00E+00  0.00E+00  3.02E-07  5.32E-08  4.72E-06  0.00000
     44.  227.273  3.34E-07  6.46E-08  0.00E+00  0.00E+00  0.00E+00  0.00E+00  3.34E-07  6.46E-08  5.39E-06  0.00000
     46.  217.391  3.58E-07  7.57E-08  0.00E+00  0.00E+00  0.00E+00  0.00E+00  3.58E-07  7.57E-08  6.11E-06  0.00000
     48.  208.333  3.84E-07  8.85E-08  0.00E+00  0.00E+00  0.00E+00  0.00E+00  3.84E-07  8.85E-08  6.88E-06  0.00000
     50.  200.000  4.20E-07  1.05E-07  0.00E+00  0.00E+00  0.00E+00  0.00E+00  4.20E-07  1.05E-07  7.72E-06  0.00000
     52.  192.308  4.45E-07  1.20E-07  0.00E+00  0.00E+00  0.00E+00  0.00E+00  4.45E-07  1.20E-07  8.61E-06  0.00000
     54.  185.185  4.66E-07  1.36E-07  0.00E+00  0.00E+00  0.00E+00  0.00E+00  4.66E-07  1.36E-07  9.54E-06  0.00000
     56.  178.571  4.92E-07  1.54E-07  0.00E+00  0.00E+00  0.00E+00  0.00E+00  4.92E-07  1.54E-07  1.05E-05  0.00000
     58.  172.414  5.26E-07  1.77E-07  0.00E+00  0.00E+00  0.00E+00  0.00E+00  5.26E-07  1.77E-07  1.16E-05  0.00000
     60.  166.667  5.65E-07  2.03E-07  0.00E+00  0.00E+00  0.00E+00  0.00E+00  5.65E-07  2.03E-07  1.27E-05  0.00000
     62.  161.290  6.00E-07  2.31E-07  0.00E+00  0.00E+00  0.00E+00  0.00E+00  6.00E-07  2.31E-07  1.39E-05  0.00000
     64.  156.250  6.36E-07  2.61E-07  0.00E+00  0.00E+00  0.00E+00  0.00E+00  6.36E-07  2.61E-07  1.52E-05  0.00000
     66.  151.515  6.82E-07  2.97E-07  0.00E+00  0.00E+00  0.00E+00  0.00E+00  6.82E-07  2.97E-07  1.65E-05  0.00000
     68.  147.059  7.12E-07  3.29E-07  0.00E+00  0.00E+00  0.00E+00  0.00E+00  7.12E-07  3.29E-07  1.80E-05  0.00000
     70.  142.857  7.47E-07  3.66E-07  0.00E+00  0.00E+00  0.00E+00  0.00E+00  7.47E-07  3.66E-07  1.95E-05  0.00000
     72.  138.889  7.77E-07  4.03E-07  0.00E+00  0.00E+00  0.00E+00  0.00E+00  7.77E-07  4.03E-07  2.10E-05  0.00000
     74.  135.135  8.08E-07  4.43E-07  0.00E+00  0.00E+00  0.00E+00  0.00E+00  8.08E-07  4.43E-07  2.26E-05  0.00000
     76.  131.579  8.52E-07  4.92E-07  0.00E+00  0.00E+00  0.00E+00  0.00E+00  8.52E-07  4.92E-07  2.43E-05  0.00000
     78.  128.205  8.92E-07  5.43E-07  0.00E+00  0.00E+00  0.00E+00  0.00E+00  8.92E-07  5.43E-07  2.61E-05  0.00000
     80.  125.000  9.30E-07  5.95E-07  0.00E+00  0.00E+00  0.00E+00  0.00E+00  9.30E-07  5.95E-07  2.80E-05  0.00000
     82.  121.951  9.76E-07  6.56E-07  0.00E+00  0.00E+00  0.00E+00  0.00E+00  9.76E-07  6.56E-07  2.99E-05  0.00000
     84.  119.048  1.03E-06  7.27E-07  0.00E+00  0.00E+00  0.00E+00  0.00E+00  1.03E-06  7.27E-07  3.20E-05  0.00000
     86.  116.279  1.07E-06  7.88E-07  0.00E+00  0.00E+00  0.00E+00  0.00E+00  1.07E-06  7.88E-07  3.41E-05  0.00000
     88.  113.636  1.09E-06  8.46E-07  0.00E+00  0.00E+00  0.00E+00  0.00E+00  1.09E-06  8.46E-07  3.63E-05  0.00000
     90.  111.111  1.13E-06  9.18E-07  0.00E+00  0.00E+00  0.00E+00  0.00E+00  1.13E-06  9.18E-07  3.86E-05  0.00000
     92.  108.696  1.17E-06  9.94E-07  0.00E+00  0.00E+00  0.00E+00  0.00E+00  1.17E-06  9.94E-07  4.09E-05  0.00000
     94.  106.383  1.22E-06  1.08E-06  0.00E+00  0.00E+00  0.00E+00  0.00E+00  1.22E-06  1.08E-06  4.34E-05  0.00000
     96.  104.167  1.27E-06  1.17E-06  0.00E+00  0.00E+00  0.00E+00  0.00E+00  1.27E-06  1.17E-06  4.59E-05  0.00000
     98.  102.041  1.31E-06  1.26E-06  0.00E+00  0.00E+00  0.00E+00  0.00E+00  1.31E-06  1.26E-06  4.85E-05  0.00000
    100.  100.000  1.35E-06  1.35E-06  0.00E+00  0.00E+00  0.00E+00  0.00E+00  1.35E-06  1.35E-06  5.12E-05  0.00000
  iv          105
1                                             RADIANCE(WATTS/CM2-STER-XXX)
0  FREQ   WAVLEN    PATH THERMAL      SURFACE EMISSION    SURFACE REFLECTED     TOTAL RADIANCE   INTEGRAL    TOTAL
  (CM-1) (MICRN)    (CM-1)   (MICRN)    (CM-1)   (MICRN)    (CM-1)   (MICRN)    (CM-1)   (MICRN)    (CM-1)   TRANS

    102.   98.039  1.40E-06  1.45E-06  0.00E+00  0.00E+00  0.00E+00  0.00E+00  1.40E-06  1.45E-06  5.40E-05  0.00000
    104.   96.154  1.44E-06  1.56E-06  0.00E+00  0.00E+00  0.00E+00  0.00E+00  1.44E-06  1.56E-06  5.69E-05  0.00000
    106.   94.340  1.49E-06  1.67E-06  0.00E+00  0.00E+00  0.00E+00  0.00E+00  1.49E-06  1.67E-06  5.99E-05  0.00000
    108.   92.593  1.55E-06  1.81E-06  0.00E+00  0.00E+00  0.00E+00  0.00E+00  1.55E-06  1.81E-06  6.30E-05  0.00000
    110.   90.909  1.60E-06  1.94E-06  0.00E+00  0.00E+00  0.00E+00  0.00E+00  1.60E-06  1.94E-06  6.62E-05  0.00000
    112.   89.286  1.65E-06  2.07E-06  0.00E+00  0.00E+00  0.00E+00  0.00E+00  1.65E-06  2.07E-06  6.95E-05  0.00000
    114.   87.719  1.74E-06  2.26E-06  0.00E+00  0.00E+00  0.00E+00  0.00E+00  1.74E-06  2.26E-06  7.30E-05  0.00000
    116.   86.207  1.78E-06  2.39E-06  0.00E+00  0.00E+00  0.00E+00  0.00E+00  1.78E-06  2.39E-06  7.65E-05  0.00000
    118.   84.746  1.79E-06  2.50E-06  0.00E+00  0.00E+00  0.00E+00  0.00E+00  1.79E-06  2.50E-06  8.01E-05  0.00000
    120.   83.333  1.82E-06  2.62E-06  0.00E+00  0.00E+00  0.00E+00  0.00E+00  1.82E-06  2.62E-06  8.38E-05  0.00000
    122.   81.967  1.86E-06  2.77E-06  0.00E+00  0.00E+00  0.00E+00  0.00E+00  1.86E-06  2.77E-06  8.75E-05  0.00000
    124.   80.645  1.92E-06  2.96E-06  0.00E+00  0.00E+00  0.00E+00  0.00E+00  1.92E-06  2.96E-06  9.13E-05  0.00000
    126.   79.365  1.96E-06  3.11E-06  0.00E+00  0.00E+00  0.00E+00  0.00E+00  1.96E-06  3.11E-06  9.53E-05  0.00000
    128.   78.125  2.02E-06  3.30E-06  0.00E+00  0.00E+00  0.00E+00  0.00E+00  2.02E-06  3.30E-06  9.93E-05  0.00000
    130.   76.923  2.08E-06  3.51E-06  0.00E+00  0.00E+00  0.00E+00  0.00E+00  2.08E-06  3.51E-06  1.03E-04  0.00000
    132.   75.758  2.11E-06  3.67E-06  0.00E+00  0.00E+00  0.00E+00  0.00E+00  2.11E-06  3.67E-06  1.08E-04  0.00000
    134.   74.627  2.17E-06  3.90E-06  0.00E+00  0.00E+00  0.00E+00  0.00E+00  2.17E-06  3.90E-06  1.12E-04  0.00000
    136.   73.529  2.24E-06  4.15E-06  0.00E+00  0.00E+00  0.00E+00  0.00E+00  2.24E-06  4.15E-06  1.16E-04  0.00000
    138.   72.464  2.26E-06  4.31E-06  0.00E+00  0.00E+00  0.00E+00  0.00E+00  2.26E-06  4.31E-06  1.21E-04  0.00000
    140.   71.429  2.30E-06  4.50E-06  0.00E+00  0.00E+00  0.00E+00  0.00E+00  2.30E-06  4.50E-06  1.26E-04  0.00000
    142.   70.423  2.39E-06  4.83E-06  0.00E+00  0.00E+00  0.00E+00  0.00E+00  2.39E-06  4.83E-06  1.30E-04  0.00000
    144.   69.444  2.49E-06  5.16E-06  0.00E+00  0.00E+00  0.00E+00  0.00E+00  2.49E-06  5.16E-06  1.35E-04  0.00000
    146.   68.493  2.52E-06  5.37E-06  0.00E+00  0.00E+00  0.00E+00  0.00E+00  2.52E-06  5.37E-06  1.40E-04  0.00000
    148.   67.568  2.52E-06  5.51E-06  0.00E+00  0.00E+00  0.00E+00  0.00E+00  2.52E-06  5.51E-06  1.45E-04  0.00000
    150.   66.667  2.54E-06  5.71E-06  0.00E+00  0.00E+00  0.00E+00  0.00E+00  2.54E-06  5.71E-06  1.51E-04  0.00000
    152.   65.789  2.58E-06  5.97E-06  0.00E+00  0.00E+00  0.00E+00  0.00E+00  2.58E-06  5.97E-06  1.56E-04  0.00000
    154.   64.935  2.65E-06  6.28E-06  0.00E+00  0.00E+00  0.00E+00  0.00E+00  2.65E-06  6.28E-06  1.61E-04  0.00000
    156.   64.103  2.71E-06  6.60E-06  0.00E+00  0.00E+00  0.00E+00  0.00E+00  2.71E-06  6.60E-06  1.66E-04  0.00000
    158.   63.291  2.77E-06  6.90E-06  0.00E+00  0.00E+00  0.00E+00  0.00E+00  2.77E-06  6.90E-06  1.72E-04  0.00000
    160.   62.500  2.87E-06  7.34E-06  0.00E+00  0.00E+00  0.00E+00  0.00E+00  2.87E-06  7.34E-06  1.78E-04  0.00000
    162.   61.728  2.96E-06  7.76E-06  0.00E+00  0.00E+00  0.00E+00  0.00E+00  2.96E-06  7.76E-06  1.84E-04  0.00000
    164.   60.976  3.02E-06  8.12E-06  0.00E+00  0.00E+00  0.00E+00  0.00E+00  3.02E-06  8.12E-06  1.90E-04  0.00000
    166.   60.241  3.00E-06  8.28E-06  0.00E+00  0.00E+00  0.00E+00  0.00E+00  3.00E-06  8.28E-06  1.96E-04  0.00000
    168.   59.524  3.01E-06  8.50E-06  0.00E+00  0.00E+00  0.00E+00  0.00E+00  3.01E-06  8.50E-06  2.02E-04  0.00000
    170.   58.824  3.04E-06  8.78E-06  0.00E+00  0.00E+00  0.00E+00  0.00E+00  3.04E-06  8.78E-06  2.08E-04  0.00000
    172.   58.140  3.08E-06  9.13E-06  0.00E+00  0.00E+00  0.00E+00  0.00E+00  3.08E-06  9.13E-06  2.14E-04  0.00000
    174.   57.471  3.15E-06  9.53E-06  0.00E+00  0.00E+00  0.00E+00  0.00E+00  3.15E-06  9.53E-06  2.20E-04  0.00000
    176.   56.818  3.19E-06  9.88E-06  0.00E+00  0.00E+00  0.00E+00  0.00E+00  3.19E-06  9.88E-06  2.27E-04  0.00000
    178.   56.180  3.24E-06  1.03E-05  0.00E+00  0.00E+00  0.00E+00  0.00E+00  3.24E-06  1.03E-05  2.33E-04  0.00000
    180.   55.556  3.34E-06  1.08E-05  0.00E+00  0.00E+00  0.00E+00  0.00E+00  3.34E-06  1.08E-05  2.40E-04  0.00000
    182.   54.945  3.40E-06  1.13E-05  0.00E+00  0.00E+00  0.00E+00  0.00E+00  3.40E-06  1.13E-05  2.47E-04  0.00000
    184.   54.348  3.52E-06  1.19E-05  0.00E+00  0.00E+00  0.00E+00  0.00E+00  3.52E-06  1.19E-05  2.54E-04  0.00000
    186.   53.763  3.57E-06  1.24E-05  0.00E+00  0.00E+00  0.00E+00  0.00E+00  3.57E-06  1.24E-05  2.61E-04  0.00000
    188.   53.191  3.54E-06  1.25E-05  0.00E+00  0.00E+00  0.00E+00  0.00E+00  3.54E-06  1.25E-05  2.68E-04  0.00000
    190.   52.632  3.65E-06  1.32E-05  0.00E+00  0.00E+00  0.00E+00  0.00E+00  3.65E-06  1.32E-05  2.75E-04  0.00000
    192.   52.083  3.73E-06  1.37E-05  0.00E+00  0.00E+00  0.00E+00  0.00E+00  3.73E-06  1.37E-05  2.83E-04  0.00000
    194.   51.546  3.71E-06  1.40E-05  0.00E+00  0.00E+00  0.00E+00  0.00E+00  3.71E-06  1.40E-05  2.90E-04  0.00000
    196.   51.020  3.77E-06  1.45E-05  0.00E+00  0.00E+00  0.00E+00  0.00E+00  3.77E-06  1.45E-05  2.98E-04  0.00000
    198.   50.505  3.83E-06  1.50E-05  0.00E+00  0.00E+00  0.00E+00  0.00E+00  3.83E-06  1.50E-05  3.05E-04  0.00000
    200.   50.000  3.82E-06  1.53E-05  0.00E+00  0.00E+00  0.00E+00  0.00E+00  3.82E-06  1.53E-05  3.13E-04  0.00000
  iv          205
1                                             RADIANCE(WATTS/CM2-STER-XXX)
0  FREQ   WAVLEN    PATH THERMAL      SURFACE EMISSION    SURFACE REFLECTED     TOTAL RADIANCE   INTEGRAL    TOTAL
  (CM-1) (MICRN)    (CM-1)   (MICRN)    (CM-1)   (MICRN)    (CM-1)   (MICRN)    (CM-1)   (MICRN)    (CM-1)   TRANS

    202.   49.505  3.81E-06  1.55E-05  0.00E+00  0.00E+00  0.00E+00  0.00E+00  3.81E-06  1.55E-05  3.20E-04  0.00000
    204.   49.020  3.88E-06  1.61E-05  0.00E+00  0.00E+00  0.00E+00  0.00E+00  3.88E-06  1.61E-05  3.28E-04  0.00000
    206.   48.544  3.94E-06  1.67E-05  0.00E+00  0.00E+00  0.00E+00  0.00E+00  3.94E-06  1.67E-05  3.36E-04  0.00000
    208.   48.077  3.95E-06  1.71E-05  0.00E+00  0.00E+00  0.00E+00  0.00E+00  3.95E-06  1.71E-05  3.44E-04  0.00000
    210.   47.619  4.05E-06  1.79E-05  0.00E+00  0.00E+00  0.00E+00  0.00E+00  4.05E-06  1.79E-05  3.52E-04  0.00000
    212.   47.170  4.14E-06  1.86E-05  0.00E+00  0.00E+00  0.00E+00  0.00E+00  4.14E-06  1.86E-05  3.60E-04  0.00000
    214.   46.729  4.15E-06  1.90E-05  0.00E+00  0.00E+00  0.00E+00  0.00E+00  4.15E-06  1.90E-05  3.69E-04  0.00000
    216.   46.296  4.31E-06  2.01E-05  0.00E+00  0.00E+00  0.00E+00  0.00E+00  4.31E-06  2.01E-05  3.77E-04  0.00000
    218.   45.872  4.44E-06  2.11E-05  0.00E+00  0.00E+00  0.00E+00  0.00E+00  4.44E-06  2.11E-05  3.86E-04  0.00000
    220.   45.455  4.37E-06  2.12E-05  0.00E+00  0.00E+00  0.00E+00  0.00E+00  4.37E-06  2.12E-05  3.95E-04  0.00000
    222.   45.045  4.29E-06  2.11E-05  0.00E+00  0.00E+00  0.00E+00  0.00E+00  4.29E-06  2.11E-05  4.03E-04  0.00000
    224.   44.643  4.34E-06  2.18E-05  0.00E+00  0.00E+00  0.00E+00  0.00E+00  4.34E-06  2.18E-05  4.12E-04  0.00000
    226.   44.248  4.34E-06  2.22E-05  0.00E+00  0.00E+00  0.00E+00  0.00E+00  4.34E-06  2.22E-05  4.21E-04  0.00000
    228.   43.860  4.40E-06  2.29E-05  0.00E+00  0.00E+00  0.00E+00  0.00E+00  4.40E-06  2.29E-05  4.30E-04  0.00000
    230.   43.478  4.55E-06  2.41E-05  0.00E+00  0.00E+00  0.00E+00  0.00E+00  4.55E-06  2.41E-05  4.39E-04  0.00000
    232.   43.103  4.67E-06  2.52E-05  0.00E+00  0.00E+00  0.00E+00  0.00E+00  4.67E-06  2.52E-05  4.48E-04  0.00000
    234.   42.735  4.83E-06  2.64E-05  0.00E+00  0.00E+00  0.00E+00  0.00E+00  4.83E-06  2.64E-05  4.58E-04  0.00000
    236.   42.373  4.96E-06  2.76E-05  0.00E+00  0.00E+00  0.00E+00  0.00E+00  4.96E-06  2.76E-05  4.68E-04  0.00000
    238.   42.017  5.03E-06  2.85E-05  0.00E+00  0.00E+00  0.00E+00  0.00E+00  5.03E-06  2.85E-05  4.78E-04  0.00000
    240.   41.667  5.07E-06  2.92E-05  0.00E+00  0.00E+00  0.00E+00  0.00E+00  5.07E-06  2.92E-05  4.88E-04  0.00000
    242.   41.322  5.04E-06  2.95E-05  0.00E+00  0.00E+00  0.00E+00  0.00E+00  5.04E-06  2.95E-05  4.98E-04  0.00000
    244.   40.984  4.87E-06  2.90E-05  0.00E+00  0.00E+00  0.00E+00  0.00E+00  4.87E-06  2.90E-05  5.08E-04  0.00000
    246.   40.650  4.75E-06  2.88E-05  0.00E+00  0.00E+00  0.00E+00  0.00E+00  4.75E-06  2.88E-05  5.17E-04  0.00000
    248.   40.323  4.83E-06  2.97E-05  0.00E+00  0.00E+00  0.00E+00  0.00E+00  4.83E-06  2.97E-05  5.27E-04  0.00000
    250.   40.000  5.00E-06  3.12E-05  0.00E+00  0.00E+00  0.00E+00  0.00E+00  5.00E-06  3.12E-05  5.37E-04  0.00000
    252.   39.683  4.98E-06  3.16E-05  0.00E+00  0.00E+00  0.00E+00  0.00E+00  4.98E-06  3.16E-05  5.47E-04  0.00000
    254.   39.370  4.97E-06  3.20E-05  0.00E+00  0.00E+00  0.00E+00  0.00E+00  4.97E-06  3.20E-05  5.57E-04  0.00000
    256.   39.063  5.16E-06  3.38E-05  0.00E+00  0.00E+00  0.00E+00  0.00E+00  5.16E-06  3.38E-05  5.67E-04  0.00000
    258.   38.760  5.40E-06  3.60E-05  0.00E+00  0.00E+00  0.00E+00  0.00E+00  5.40E-06  3.60E-05  5.78E-04  0.00000
    260.   38.462  5.56E-06  3.76E-05  0.00E+00  0.00E+00  0.00E+00  0.00E+00  5.56E-06  3.76E-05  5.89E-04  0.00000
    262.   38.168  5.59E-06  3.84E-05  0.00E+00  0.00E+00  0.00E+00  0.00E+00  5.59E-06  3.84E-05  6.00E-04  0.00000
    264.   37.879  5.54E-06  3.86E-05  0.00E+00  0.00E+00  0.00E+00  0.00E+00  5.54E-06  3.86E-05  6.11E-04  0.00000
    266.   37.594  5.43E-06  3.84E-05  0.00E+00  0.00E+00  0.00E+00  0.00E+00  5.43E-06  3.84E-05  6.22E-04  0.00000
    268.   37.313  5.60E-06  4.02E-05  0.00E+00  0.00E+00  0.00E+00  0.00E+00  5.60E-06  4.02E-05  6.33E-04  0.00000
    270.   37.037  5.80E-06  4.23E-05  0.00E+00  0.00E+00  0.00E+00  0.00E+00  5.80E-06  4.23E-05  6.45E-04  0.00000
    272.   36.765  5.81E-06  4.30E-05  0.00E+00  0.00E+00  0.00E+00  0.00E+00  5.81E-06  4.30E-05  6.57E-04  0.00000
    274.   36.496  5.73E-06  4.30E-05  0.00E+00  0.00E+00  0.00E+00  0.00E+00  5.73E-06  4.30E-05  6.68E-04  0.00000
    276.   36.232  5.50E-06  4.19E-05  0.00E+00  0.00E+00  0.00E+00  0.00E+00  5.50E-06  4.19E-05  6.79E-04  0.00000
    278.   35.971  5.37E-06  4.15E-05  0.00E+00  0.00E+00  0.00E+00  0.00E+00  5.37E-06  4.15E-05  6.90E-04  0.00000
    280.   35.714  5.40E-06  4.24E-05  0.00E+00  0.00E+00  0.00E+00  0.00E+00  5.40E-06  4.24E-05  7.01E-04  0.00000
    282.   35.461  5.50E-06  4.37E-05  0.00E+00  0.00E+00  0.00E+00  0.00E+00  5.50E-06  4.37E-05  7.12E-04  0.00000
    284.   35.211  5.78E-06  4.66E-05  0.00E+00  0.00E+00  0.00E+00  0.00E+00  5.78E-06  4.66E-05  7.23E-04  0.00000
    286.   34.965  5.99E-06  4.90E-05  0.00E+00  0.00E+00  0.00E+00  0.00E+00  5.99E-06  4.90E-05  7.35E-04  0.00000
    288.   34.722  5.85E-06  4.85E-05  0.00E+00  0.00E+00  0.00E+00  0.00E+00  5.85E-06  4.85E-05  7.47E-04  0.00000
    290.   34.483  5.78E-06  4.86E-05  0.00E+00  0.00E+00  0.00E+00  0.00E+00  5.78E-06  4.86E-05  7.58E-04  0.00000
    292.   34.247  6.14E-06  5.24E-05  0.00E+00  0.00E+00  0.00E+00  0.00E+00  6.14E-06  5.24E-05  7.71E-04  0.00000
    294.   34.014  6.37E-06  5.50E-05  0.00E+00  0.00E+00  0.00E+00  0.00E+00  6.37E-06  5.50E-05  7.83E-04  0.00000
    296.   33.784  6.35E-06  5.57E-05  0.00E+00  0.00E+00  0.00E+00  0.00E+00  6.35E-06  5.57E-05  7.96E-04  0.00000
    298.   33.557  6.25E-06  5.55E-05  0.00E+00  0.00E+00  0.00E+00  0.00E+00  6.25E-06  5.55E-05  8.09E-04  0.00000
    300.   33.333  6.11E-06  5.50E-05  0.00E+00  0.00E+00  0.00E+00  0.00E+00  6.11E-06  5.50E-05  8.21E-04  0.00000
  iv          305
1                                             RADIANCE(WATTS/CM2-STER-XXX)
0  FREQ   WAVLEN    PATH THERMAL      SURFACE EMISSION    SURFACE REFLECTED     TOTAL RADIANCE   INTEGRAL    TOTAL
  (CM-1) (MICRN)    (CM-1)   (MICRN)    (CM-1)   (MICRN)    (CM-1)   (MICRN)    (CM-1)   (MICRN)    (CM-1)   TRANS

    302.   33.113  5.86E-06  5.34E-05  0.00E+00  0.00E+00  0.00E+00  0.00E+00  5.86E-06  5.34E-05  8.33E-04  0.00000
    304.   32.895  5.98E-06  5.52E-05  0.00E+00  0.00E+00  0.00E+00  0.00E+00  5.98E-06  5.52E-05  8.45E-04  0.00000
    306.   32.680  6.40E-06  5.99E-05  0.00E+00  0.00E+00  0.00E+00  0.00E+00  6.40E-06  5.99E-05  8.57E-04  0.00000
    308.   32.468  6.61E-06  6.27E-05  0.00E+00  0.00E+00  0.00E+00  0.00E+00  6.61E-06  6.27E-05  8.71E-04  0.00000
    310.   32.258  6.70E-06  6.44E-05  0.00E+00  0.00E+00  0.00E+00  0.00E+00  6.70E-06  6.44E-05  8.84E-04  0.00000
    312.   32.051  6.76E-06  6.58E-05  0.00E+00  0.00E+00  0.00E+00  0.00E+00  6.76E-06  6.58E-05  8.97E-04  0.00000
    314.   31.847  6.54E-06  6.45E-05  0.00E+00  0.00E+00  0.00E+00  0.00E+00  6.54E-06  6.45E-05  9.11E-04  0.00000
    316.   31.646  6.56E-06  6.56E-05  0.00E+00  0.00E+00  0.00E+00  0.00E+00  6.56E-06  6.56E-05  9.24E-04  0.00000
    318.   31.447  6.91E-06  6.99E-05  0.00E+00  0.00E+00  0.00E+00  0.00E+00  6.91E-06  6.99E-05  9.37E-04  0.00000
    320.   31.250  6.90E-06  7.07E-05  0.00E+00  0.00E+00  0.00E+00  0.00E+00  6.90E-06  7.07E-05  9.51E-04  0.00000
    322.   31.056  6.57E-06  6.81E-05  0.00E+00  0.00E+00  0.00E+00  0.00E+00  6.57E-06  6.81E-05  9.64E-04  0.00000
    324.   30.864  6.34E-06  6.66E-05  0.00E+00  0.00E+00  0.00E+00  0.00E+00  6.34E-06  6.66E-05  9.77E-04  0.00000
    326.   30.675  6.45E-06  6.86E-05  0.00E+00  0.00E+00  0.00E+00  0.00E+00  6.45E-06  6.86E-05  9.90E-04  0.00000
    328.   30.488  6.44E-06  6.93E-05  0.00E+00  0.00E+00  0.00E+00  0.00E+00  6.44E-06  6.93E-05  1.00E-03  0.00000
    330.   30.303  6.87E-06  7.48E-05  0.00E+00  0.00E+00  0.00E+00  0.00E+00  6.87E-06  7.48E-05  1.02E-03  0.00000
    332.   30.120  7.11E-06  7.84E-05  0.00E+00  0.00E+00  0.00E+00  0.00E+00  7.11E-06  7.84E-05  1.03E-03  0.00000
    334.   29.940  6.77E-06  7.56E-05  0.00E+00  0.00E+00  0.00E+00  0.00E+00  6.77E-06  7.56E-05  1.04E-03  0.00000
    336.   29.762  6.72E-06  7.59E-05  0.00E+00  0.00E+00  0.00E+00  0.00E+00  6.72E-06  7.59E-05  1.06E-03  0.00000
    338.   29.586  7.18E-06  8.21E-05  0.00E+00  0.00E+00  0.00E+00  0.00E+00  7.18E-06  8.21E-05  1.07E-03  0.00000
    340.   29.412  7.06E-06  8.16E-05  3.33E-42  3.85E-41  0.00E+00  0.00E+00  7.06E-06  8.16E-05  1.09E-03  0.00000
    342.   29.240  7.01E-06  8.20E-05  3.64E-42  4.25E-41  0.00E+00  0.00E+00  7.01E-06  8.20E-05  1.10E-03  0.00000
    344.   29.070  7.24E-06  8.57E-05  3.10E-43  3.66E-42  0.00E+00  0.00E+00  7.24E-06  8.57E-05  1.11E-03  0.00000
    346.   28.902  7.37E-06  8.82E-05  5.61E-45  6.73E-44  0.00E+00  0.00E+00  7.37E-06  8.82E-05  1.13E-03  0.00000
    348.   28.736  7.19E-06  8.70E-05  1.40E-45  1.68E-44  0.00E+00  0.00E+00  7.19E-06  8.70E-05  1.14E-03  0.00000
    350.   28.571  6.79E-06  8.32E-05  0.00E+00  0.00E+00  0.00E+00  0.00E+00  6.79E-06  8.32E-05  1.16E-03  0.00000
    352.   28.409  6.74E-06  8.36E-05  0.00E+00  0.00E+00  0.00E+00  0.00E+00  6.74E-06  8.36E-05  1.17E-03  0.00000
    354.   28.249  6.81E-06  8.54E-05  0.00E+00  0.00E+00  0.00E+00  0.00E+00  6.81E-06  8.54E-05  1.18E-03  0.00000
    356.   28.090  6.88E-06  8.72E-05  0.00E+00  0.00E+00  0.00E+00  0.00E+00  6.88E-06  8.72E-05  1.20E-03  0.00000
    358.   27.933  7.09E-06  9.09E-05  4.52E-40  5.79E-39  0.00E+00  0.00E+00  7.09E-06  9.09E-05  1.21E-03  0.00000
    360.   27.778  7.71E-06  9.99E-05  6.57E-30  8.51E-29  0.00E+00  0.00E+00  7.71E-06  9.99E-05  1.23E-03  0.00000
    362.   27.624  7.99E-06  1.05E-04  5.22E-26  6.84E-25  0.00E+00  0.00E+00  7.99E-06  1.05E-04  1.24E-03  0.00000
    364.   27.473  8.12E-06  1.08E-04  1.39E-24  1.84E-23  0.00E+00  0.00E+00  8.12E-06  1.08E-04  1.26E-03  0.00000
    366.   27.322  8.20E-06  1.10E-04  3.04E-24  4.08E-23  0.00E+00  0.00E+00  8.20E-06  1.10E-04  1.28E-03  0.00000
    368.   27.174  7.83E-06  1.06E-04  9.30E-25  1.26E-23  0.00E+00  0.00E+00  7.83E-06  1.06E-04  1.29E-03  0.00000
    370.   27.027  7.50E-06  1.03E-04  1.55E-31  2.12E-30  0.00E+00  0.00E+00  7.50E-06  1.03E-04  1.31E-03  0.00000
    372.   26.882  7.77E-06  1.07E-04  7.36E-33  1.02E-31  0.00E+00  0.00E+00  7.77E-06  1.07E-04  1.32E-03  0.00000
    374.   26.738  7.33E-06  1.03E-04  3.43E-35  4.79E-34  0.00E+00  0.00E+00  7.33E-06  1.03E-04  1.34E-03  0.00000
    376.   26.596  7.31E-06  1.03E-04  4.66E-35  6.58E-34  0.00E+00  0.00E+00  7.31E-06  1.03E-04  1.35E-03  0.00000
    378.   26.455  7.99E-06  1.14E-04  9.26E-24  1.32E-22  0.00E+00  0.00E+00  7.99E-06  1.14E-04  1.37E-03  0.00000
    380.   26.316  8.36E-06  1.21E-04  8.73E-23  1.26E-21  0.00E+00  0.00E+00  8.36E-06  1.21E-04  1.38E-03  0.00000
    382.   26.178  8.29E-06  1.21E-04  8.56E-23  1.25E-21  0.00E+00  0.00E+00  8.29E-06  1.21E-04  1.40E-03  0.00000
    384.   26.042  7.64E-06  1.13E-04  8.43E-24  1.24E-22  0.00E+00  0.00E+00  7.64E-06  1.13E-04  1.42E-03  0.00000
    386.   25.907  7.68E-06  1.14E-04  2.20E-20  3.27E-19  0.00E+00  0.00E+00  7.68E-06  1.14E-04  1.43E-03  0.00000
    388.   25.773  8.50E-06  1.28E-04  1.29E-18  1.94E-17  0.00E+00  0.00E+00  8.50E-06  1.28E-04  1.45E-03  0.00000
    390.   25.641  8.77E-06  1.33E-04  2.70E-18  4.10E-17  0.00E+00  0.00E+00  8.77E-06  1.33E-04  1.47E-03  0.00000
    392.   25.510  8.60E-06  1.32E-04  1.07E-18  1.65E-17  0.00E+00  0.00E+00  8.60E-06  1.32E-04  1.48E-03  0.00000
    394.   25.381  7.96E-06  1.24E-04  1.82E-21  2.82E-20  0.00E+00  0.00E+00  7.96E-06  1.24E-04  1.50E-03  0.00000
    396.   25.253  7.41E-06  1.16E-04  1.67E-26  2.63E-25  0.00E+00  0.00E+00  7.41E-06  1.16E-04  1.51E-03  0.00000
    398.   25.126  7.27E-06  1.15E-04  4.30E-41  6.81E-40  0.00E+00  0.00E+00  7.27E-06  1.15E-04  1.53E-03  0.00000
    400.   25.000  7.81E-06  1.25E-04  1.05E-20  1.69E-19  0.00E+00  0.00E+00  7.81E-06  1.25E-04  1.54E-03  0.00000
  iv          405
1                                             RADIANCE(WATTS/CM2-STER-XXX)
0  FREQ   WAVLEN    PATH THERMAL      SURFACE EMISSION    SURFACE REFLECTED     TOTAL RADIANCE   INTEGRAL    TOTAL
  (CM-1) (MICRN)    (CM-1)   (MICRN)    (CM-1)   (MICRN)    (CM-1)   (MICRN)    (CM-1)   (MICRN)    (CM-1)   TRANS

    402.   24.876  8.74E-06  1.41E-04  4.72E-16  7.63E-15  0.00E+00  0.00E+00  8.74E-06  1.41E-04  1.56E-03  0.00000
    404.   24.752  9.09E-06  1.48E-04  6.27E-15  1.02E-13  0.00E+00  0.00E+00  9.09E-06  1.48E-04  1.58E-03  0.00000
    406.   24.631  9.20E-06  1.52E-04  1.32E-13  2.18E-12  0.00E+00  0.00E+00  9.20E-06  1.52E-04  1.60E-03  0.00000
    408.   24.510  9.36E-06  1.56E-04  4.43E-13  7.38E-12  0.00E+00  0.00E+00  9.36E-06  1.56E-04  1.62E-03  0.00000
    410.   24.390  9.40E-06  1.58E-04  5.48E-13  9.21E-12  0.00E+00  0.00E+00  9.40E-06  1.58E-04  1.64E-03  0.00000
    412.   24.272  9.39E-06  1.59E-04  3.43E-13  5.82E-12  0.00E+00  0.00E+00  9.39E-06  1.59E-04  1.66E-03  0.00000
    414.   24.155  9.20E-06  1.58E-04  6.89E-14  1.18E-12  0.00E+00  0.00E+00  9.20E-06  1.58E-04  1.67E-03  0.00000
    416.   24.038  8.61E-06  1.49E-04  7.36E-16  1.27E-14  0.00E+00  0.00E+00  8.61E-06  1.49E-04  1.69E-03  0.00000
    418.   23.923  7.64E-06  1.33E-04  1.88E-23  3.28E-22  0.00E+00  0.00E+00  7.64E-06  1.33E-04  1.71E-03  0.00000
    420.   23.810  7.68E-06  1.35E-04  1.19E-33  2.09E-32  0.00E+00  0.00E+00  7.68E-06  1.35E-04  1.72E-03  0.00000
    422.   23.697  8.35E-06  1.49E-04  2.19E-22  3.91E-21  0.00E+00  0.00E+00  8.35E-06  1.49E-04  1.74E-03  0.00000
    424.   23.585  8.54E-06  1.54E-04  4.89E-19  8.78E-18  0.00E+00  0.00E+00  8.54E-06  1.54E-04  1.76E-03  0.00000
    426.   23.474  8.85E-06  1.61E-04  4.99E-13  9.06E-12  0.00E+00  0.00E+00  8.85E-06  1.61E-04  1.77E-03  0.00000
    428.   23.364  9.44E-06  1.73E-04  2.44E-12  4.47E-11  0.00E+00  0.00E+00  9.44E-06  1.73E-04  1.79E-03  0.00000
    430.   23.256  9.22E-06  1.71E-04  1.66E-12  3.06E-11  0.00E+00  0.00E+00  9.22E-06  1.71E-04  1.81E-03  0.00000
    432.   23.148  9.17E-06  1.71E-04  3.43E-12  6.40E-11  0.00E+00  0.00E+00  9.17E-06  1.71E-04  1.83E-03  0.00000
    434.   23.041  9.40E-06  1.77E-04  3.34E-12  6.30E-11  0.00E+00  0.00E+00  9.40E-06  1.77E-04  1.85E-03  0.00000
    436.   22.936  9.21E-06  1.75E-04  2.90E-12  5.51E-11  0.00E+00  0.00E+00  9.21E-06  1.75E-04  1.87E-03  0.00000
    438.   22.831  9.67E-06  1.85E-04  1.93E-11  3.70E-10  0.00E+00  0.00E+00  9.67E-06  1.85E-04  1.88E-03  0.00000
    440.   22.727  9.41E-06  1.82E-04  1.53E-11  2.96E-10  0.00E+00  0.00E+00  9.41E-06  1.82E-04  1.90E-03  0.00000
    442.   22.624  8.49E-06  1.66E-04  8.43E-13  1.65E-11  0.00E+00  0.00E+00  8.49E-06  1.66E-04  1.92E-03  0.00000
    444.   22.523  8.85E-06  1.75E-04  7.60E-14  1.50E-12  0.00E+00  0.00E+00  8.85E-06  1.75E-04  1.94E-03  0.00000
    446.   22.422  9.31E-06  1.85E-04  4.01E-12  7.98E-11  0.00E+00  0.00E+00  9.31E-06  1.85E-04  1.96E-03  0.00000
    448.   22.321  9.72E-06  1.95E-04  1.27E-10  2.54E-09  0.00E+00  0.00E+00  9.72E-06  1.95E-04  1.98E-03  0.00001
    450.   22.222  9.94E-06  2.01E-04  1.37E-10  2.77E-09  0.00E+00  0.00E+00  9.94E-06  2.01E-04  2.00E-03  0.00001
    452.   22.124  9.38E-06  1.92E-04  1.12E-11  2.29E-10  0.00E+00  0.00E+00  9.38E-06  1.92E-04  2.02E-03  0.00000
    454.   22.026  9.33E-06  1.92E-04  2.68E-13  5.52E-12  0.00E+00  0.00E+00  9.33E-06  1.92E-04  2.03E-03  0.00000
    456.   21.930  8.78E-06  1.83E-04  2.04E-14  4.25E-13  0.00E+00  0.00E+00  8.78E-06  1.83E-04  2.05E-03  0.00000
    458.   21.834  8.27E-06  1.73E-04  5.79E-15  1.21E-13  0.00E+00  0.00E+00  8.27E-06  1.73E-04  2.07E-03  0.00000
    460.   21.739  9.25E-06  1.96E-04  2.13E-13  4.51E-12  0.00E+00  0.00E+00  9.25E-06  1.96E-04  2.09E-03  0.00000
    462.   21.645  9.93E-06  2.12E-04  4.53E-10  9.68E-09  0.00E+00  0.00E+00  9.93E-06  2.12E-04  2.11E-03  0.00004
    464.   21.552  1.03E-05  2.22E-04  2.26E-09  4.86E-08  0.00E+00  0.00E+00  1.03E-05  2.22E-04  2.13E-03  0.00018
    466.   21.459  1.01E-05  2.19E-04  1.82E-09  3.94E-08  0.00E+00  0.00E+00  1.01E-05  2.19E-04  2.15E-03  0.00014
    468.   21.368  9.59E-06  2.10E-04  1.24E-10  2.72E-09  0.00E+00  0.00E+00  9.59E-06  2.10E-04  2.17E-03  0.00001
    470.   21.277  9.43E-06  2.08E-04  9.58E-12  2.12E-10  0.00E+00  0.00E+00  9.43E-06  2.08E-04  2.19E-03  0.00000
    472.   21.186  8.55E-06  1.90E-04  2.02E-12  4.50E-11  0.00E+00  0.00E+00  8.55E-06  1.90E-04  2.20E-03  0.00000
    474.   21.097  9.08E-06  2.04E-04  5.91E-11  1.33E-09  0.00E+00  0.00E+00  9.08E-06  2.04E-04  2.22E-03  0.00000
    476.   21.008  1.01E-05  2.30E-04  3.05E-09  6.91E-08  0.00E+00  0.00E+00  1.01E-05  2.30E-04  2.24E-03  0.00024
    478.   20.921  1.06E-05  2.42E-04  1.47E-08  3.37E-07  0.00E+00  0.00E+00  1.06E-05  2.42E-04  2.26E-03  0.00115
    480.   20.833  1.05E-05  2.42E-04  1.27E-08  2.93E-07  0.00E+00  0.00E+00  1.05E-05  2.42E-04  2.28E-03  0.00099
    482.   20.747  9.77E-06  2.27E-04  2.02E-09  4.68E-08  0.00E+00  0.00E+00  9.77E-06  2.27E-04  2.30E-03  0.00016
    484.   20.661  9.15E-06  2.14E-04  1.47E-10  3.44E-09  0.00E+00  0.00E+00  9.15E-06  2.14E-04  2.32E-03  0.00001
    486.   20.576  9.92E-06  2.34E-04  5.83E-09  1.38E-07  0.00E+00  0.00E+00  9.92E-06  2.34E-04  2.34E-03  0.00045
    488.   20.492  1.07E-05  2.54E-04  3.05E-08  7.26E-07  0.00E+00  0.00E+00  1.07E-05  2.55E-04  2.36E-03  0.00236
    490.   20.408  1.05E-05  2.51E-04  2.42E-08  5.82E-07  0.00E+00  0.00E+00  1.05E-05  2.52E-04  2.38E-03  0.00188
    492.   20.325  9.74E-06  2.36E-04  3.39E-09  8.19E-08  0.00E+00  0.00E+00  9.74E-06  2.36E-04  2.40E-03  0.00026
    494.   20.243  1.03E-05  2.52E-04  3.46E-08  8.43E-07  0.00E+00  0.00E+00  1.03E-05  2.52E-04  2.42E-03  0.00267
    496.   20.161  1.10E-05  2.70E-04  1.20E-07  2.96E-06  0.00E+00  0.00E+00  1.11E-05  2.73E-04  2.45E-03  0.00928
    498.   20.080  1.10E-05  2.73E-04  1.24E-07  3.08E-06  0.00E+00  0.00E+00  1.11E-05  2.76E-04  2.47E-03  0.00959
    500.   20.000  1.04E-05  2.60E-04  3.97E-08  9.92E-07  0.00E+00  0.00E+00  1.04E-05  2.61E-04  2.49E-03  0.00306
  iv          505
1                                             RADIANCE(WATTS/CM2-STER-XXX)
0  FREQ   WAVLEN    PATH THERMAL      SURFACE EMISSION    SURFACE REFLECTED     TOTAL RADIANCE   INTEGRAL    TOTAL
  (CM-1) (MICRN)    (CM-1)   (MICRN)    (CM-1)   (MICRN)    (CM-1)   (MICRN)    (CM-1)   (MICRN)    (CM-1)   TRANS

    502.   19.920  9.40E-06  2.37E-04  1.60E-09  4.04E-08  0.00E+00  0.00E+00  9.40E-06  2.37E-04  2.51E-03  0.00012
    504.   19.841  9.70E-06  2.47E-04  2.13E-10  5.41E-09  0.00E+00  0.00E+00  9.70E-06  2.47E-04  2.53E-03  0.00002
    506.   19.763  9.51E-06  2.43E-04  3.08E-10  7.89E-09  0.00E+00  0.00E+00  9.51E-06  2.43E-04  2.55E-03  0.00002
    508.   19.685  9.85E-06  2.54E-04  8.47E-09  2.19E-07  0.00E+00  0.00E+00  9.86E-06  2.54E-04  2.57E-03  0.00065
    510.   19.608  1.04E-05  2.71E-04  1.36E-08  3.53E-07  0.00E+00  0.00E+00  1.04E-05  2.71E-04  2.59E-03  0.00104
    512.   19.531  1.05E-05  2.77E-04  5.16E-08  1.35E-06  0.00E+00  0.00E+00  1.06E-05  2.78E-04  2.61E-03  0.00395
    514.   19.455  1.06E-05  2.80E-04  5.13E-08  1.36E-06  0.00E+00  0.00E+00  1.07E-05  2.81E-04  2.63E-03  0.00393
    516.   19.380  9.58E-06  2.55E-04  4.27E-09  1.14E-07  0.00E+00  0.00E+00  9.59E-06  2.55E-04  2.65E-03  0.00033
    518.   19.305  9.02E-06  2.42E-04  5.38E-12  1.44E-10  0.00E+00  0.00E+00  9.02E-06  2.42E-04  2.67E-03  0.00000
    520.   19.231  9.62E-06  2.60E-04  1.07E-08  2.90E-07  0.00E+00  0.00E+00  9.63E-06  2.60E-04  2.69E-03  0.00082
    522.   19.157  1.07E-05  2.90E-04  5.30E-08  1.44E-06  0.00E+00  0.00E+00  1.07E-05  2.92E-04  2.71E-03  0.00404
    524.   19.084  1.03E-05  2.83E-04  3.53E-08  9.69E-07  0.00E+00  0.00E+00  1.03E-05  2.84E-04  2.73E-03  0.00269
    526.   19.011  9.64E-06  2.67E-04  1.77E-08  4.89E-07  0.00E+00  0.00E+00  9.66E-06  2.67E-04  2.75E-03  0.00135
    528.   18.939  1.06E-05  2.96E-04  1.60E-07  4.46E-06  0.00E+00  0.00E+00  1.08E-05  3.00E-04  2.77E-03  0.01217
    530.   18.868  1.10E-05  3.08E-04  5.28E-07  1.48E-05  0.00E+00  0.00E+00  1.15E-05  3.22E-04  2.79E-03  0.04018
    532.   18.797  1.09E-05  3.09E-04  6.43E-07  1.82E-05  0.00E+00  0.00E+00  1.15E-05  3.27E-04  2.81E-03  0.04891
    534.   18.727  1.08E-05  3.07E-04  3.18E-07  9.08E-06  0.00E+00  0.00E+00  1.11E-05  3.16E-04  2.84E-03  0.02421
    536.   18.657  1.03E-05  2.96E-04  1.39E-07  3.98E-06  0.00E+00  0.00E+00  1.04E-05  3.00E-04  2.86E-03  0.01053
    538.   18.587  1.06E-05  3.08E-04  4.32E-07  1.25E-05  0.00E+00  0.00E+00  1.11E-05  3.21E-04  2.88E-03  0.03284
    540.   18.519  1.07E-05  3.12E-04  4.71E-07  1.37E-05  0.00E+00  0.00E+00  1.12E-05  3.26E-04  2.90E-03  0.03577
    542.   18.450  1.07E-05  3.15E-04  2.91E-07  8.56E-06  0.00E+00  0.00E+00  1.10E-05  3.24E-04  2.92E-03  0.02212
    544.   18.382  1.02E-05  3.02E-04  1.92E-07  5.67E-06  0.00E+00  0.00E+00  1.04E-05  3.08E-04  2.94E-03  0.01454
    546.   18.315  9.47E-06  2.82E-04  1.27E-08  3.79E-07  0.00E+00  0.00E+00  9.48E-06  2.83E-04  2.96E-03  0.00096
    548.   18.248  1.01E-05  3.02E-04  6.34E-08  1.90E-06  0.00E+00  0.00E+00  1.01E-05  3.04E-04  2.98E-03  0.00481
    550.   18.182  1.04E-05  3.15E-04  1.32E-07  3.99E-06  0.00E+00  0.00E+00  1.05E-05  3.19E-04  3.00E-03  0.01000
    552.   18.116  1.07E-05  3.25E-04  4.17E-07  1.27E-05  0.00E+00  0.00E+00  1.11E-05  3.38E-04  3.03E-03  0.03159
    554.   18.051  1.06E-05  3.24E-04  3.98E-07  1.22E-05  0.00E+00  0.00E+00  1.10E-05  3.36E-04  3.05E-03  0.03020
    556.   17.986  1.05E-05  3.25E-04  4.82E-07  1.49E-05  0.00E+00  0.00E+00  1.10E-05  3.40E-04  3.07E-03  0.03654
    558.   17.921  1.06E-05  3.31E-04  9.35E-07  2.91E-05  0.00E+00  0.00E+00  1.16E-05  3.60E-04  3.09E-03  0.07087
    560.   17.857  1.04E-05  3.28E-04  1.31E-06  4.12E-05  0.00E+00  0.00E+00  1.18E-05  3.69E-04  3.12E-03  0.09950
    562.   17.794  1.03E-05  3.26E-04  9.19E-07  2.90E-05  0.00E+00  0.00E+00  1.12E-05  3.55E-04  3.14E-03  0.06963
    564.   17.730  1.05E-05  3.35E-04  4.03E-07  1.28E-05  0.00E+00  0.00E+00  1.09E-05  3.48E-04  3.16E-03  0.03053
    566.   17.668  1.03E-05  3.30E-04  2.64E-07  8.46E-06  0.00E+00  0.00E+00  1.06E-05  3.39E-04  3.18E-03  0.02001
    568.   17.606  9.56E-06  3.08E-04  2.48E-08  8.00E-07  0.00E+00  0.00E+00  9.59E-06  3.09E-04  3.20E-03  0.00188
    570.   17.544  9.85E-06  3.20E-04  4.50E-08  1.46E-06  0.00E+00  0.00E+00  9.90E-06  3.22E-04  3.22E-03  0.00341
    572.   17.483  1.05E-05  3.43E-04  3.99E-07  1.30E-05  0.00E+00  0.00E+00  1.09E-05  3.56E-04  3.24E-03  0.03022
    574.   17.422  1.03E-05  3.41E-04  5.44E-07  1.79E-05  0.00E+00  0.00E+00  1.09E-05  3.59E-04  3.27E-03  0.04123
    576.   17.361  9.79E-06  3.25E-04  1.55E-07  5.15E-06  0.00E+00  0.00E+00  9.94E-06  3.30E-04  3.29E-03  0.01176
    578.   17.301  1.00E-05  3.35E-04  1.97E-07  6.59E-06  0.00E+00  0.00E+00  1.02E-05  3.41E-04  3.31E-03  0.01497
    580.   17.241  9.72E-06  3.27E-04  1.34E-07  4.50E-06  0.00E+00  0.00E+00  9.86E-06  3.32E-04  3.33E-03  0.01015
    582.   17.182  9.53E-06  3.23E-04  9.00E-08  3.05E-06  0.00E+00  0.00E+00  9.62E-06  3.26E-04  3.34E-03  0.00683
    584.   17.123  9.62E-06  3.28E-04  1.44E-07  4.90E-06  0.00E+00  0.00E+00  9.76E-06  3.33E-04  3.36E-03  0.01090
    586.   17.065  9.30E-06  3.19E-04  2.63E-07  9.03E-06  0.00E+00  0.00E+00  9.57E-06  3.28E-04  3.38E-03  0.01998
    588.   17.007  9.20E-06  3.18E-04  4.24E-07  1.46E-05  0.00E+00  0.00E+00  9.62E-06  3.33E-04  3.40E-03  0.03218
    590.   16.949  8.81E-06  3.07E-04  1.62E-07  5.63E-06  0.00E+00  0.00E+00  8.98E-06  3.12E-04  3.42E-03  0.01230
    592.   16.892  8.39E-06  2.94E-04  8.97E-09  3.14E-07  0.00E+00  0.00E+00  8.40E-06  2.94E-04  3.44E-03  0.00068
    594.   16.835  8.12E-06  2.87E-04  5.01E-09  1.77E-07  0.00E+00  0.00E+00  8.13E-06  2.87E-04  3.45E-03  0.00038
    596.   16.779  7.67E-06  2.73E-04  1.62E-08  5.74E-07  0.00E+00  0.00E+00  7.69E-06  2.73E-04  3.47E-03  0.00123
    598.   16.722  7.88E-06  2.82E-04  5.23E-08  1.87E-06  0.00E+00  0.00E+00  7.94E-06  2.84E-04  3.48E-03  0.00398
    600.   16.667  8.31E-06  2.99E-04  5.59E-08  2.01E-06  0.00E+00  0.00E+00  8.37E-06  3.01E-04  3.50E-03  0.00426
  iv          605
1                                             RADIANCE(WATTS/CM2-STER-XXX)
0  FREQ   WAVLEN    PATH THERMAL      SURFACE EMISSION    SURFACE REFLECTED     TOTAL RADIANCE   INTEGRAL    TOTAL
  (CM-1) (MICRN)    (CM-1)   (MICRN)    (CM-1)   (MICRN)    (CM-1)   (MICRN)    (CM-1)   (MICRN)    (CM-1)   TRANS

    602.   16.611  8.00E-06  2.90E-04  5.70E-08  2.07E-06  0.00E+00  0.00E+00  8.06E-06  2.92E-04  3.52E-03  0.00435
    604.   16.556  7.70E-06  2.81E-04  4.49E-08  1.64E-06  0.00E+00  0.00E+00  7.75E-06  2.83E-04  3.53E-03  0.00342
    606.   16.502  7.49E-06  2.75E-04  3.74E-08  1.37E-06  0.00E+00  0.00E+00  7.53E-06  2.77E-04  3.55E-03  0.00285
    608.   16.447  7.41E-06  2.74E-04  4.10E-08  1.52E-06  0.00E+00  0.00E+00  7.45E-06  2.75E-04  3.56E-03  0.00313
    610.   16.393  7.60E-06  2.83E-04  5.20E-08  1.93E-06  0.00E+00  0.00E+00  7.66E-06  2.85E-04  3.58E-03  0.00397
    612.   16.340  7.63E-06  2.86E-04  5.06E-08  1.90E-06  0.00E+00  0.00E+00  7.68E-06  2.88E-04  3.59E-03  0.00387
    614.   16.287  7.16E-06  2.70E-04  1.69E-08  6.36E-07  0.00E+00  0.00E+00  7.18E-06  2.71E-04  3.61E-03  0.00129
    616.   16.234  6.66E-06  2.53E-04  2.63E-09  9.98E-08  0.00E+00  0.00E+00  6.66E-06  2.53E-04  3.62E-03  0.00020
    618.   16.181  6.64E-06  2.54E-04  9.32E-10  3.56E-08  0.00E+00  0.00E+00  6.64E-06  2.54E-04  3.63E-03  0.00007
    620.   16.129  6.91E-06  2.66E-04  3.97E-09  1.53E-07  0.00E+00  0.00E+00  6.91E-06  2.66E-04  3.65E-03  0.00030
    622.   16.077  6.84E-06  2.64E-04  7.64E-09  2.96E-07  0.00E+00  0.00E+00  6.84E-06  2.65E-04  3.66E-03  0.00059
    624.   16.026  6.53E-06  2.54E-04  4.69E-09  1.83E-07  0.00E+00  0.00E+00  6.53E-06  2.54E-04  3.68E-03  0.00036
    626.   15.974  6.28E-06  2.46E-04  8.62E-11  3.38E-09  0.00E+00  0.00E+00  6.28E-06  2.46E-04  3.69E-03  0.00001
    628.   15.924  6.11E-06  2.41E-04  5.50E-11  2.17E-09  0.00E+00  0.00E+00  6.11E-06  2.41E-04  3.70E-03  0.00000
    630.   15.873  6.01E-06  2.38E-04  3.63E-11  1.44E-09  0.00E+00  0.00E+00  6.01E-06  2.38E-04  3.71E-03  0.00000
    632.   15.823  5.93E-06  2.37E-04  3.18E-12  1.27E-10  0.00E+00  0.00E+00  5.93E-06  2.37E-04  3.72E-03  0.00000
    634.   15.773  5.89E-06  2.37E-04  3.88E-13  1.56E-11  0.00E+00  0.00E+00  5.89E-06  2.37E-04  3.74E-03  0.00000
    636.   15.723  5.87E-06  2.38E-04  4.94E-15  2.00E-13  0.00E+00  0.00E+00  5.87E-06  2.38E-04  3.75E-03  0.00000
    638.   15.674  5.87E-06  2.39E-04  1.47E-17  5.97E-16  0.00E+00  0.00E+00  5.87E-06  2.39E-04  3.76E-03  0.00000
    640.   15.625  5.90E-06  2.42E-04  8.60E-19  3.52E-17  0.00E+00  0.00E+00  5.90E-06  2.42E-04  3.77E-03  0.00000
    642.   15.576  5.95E-06  2.45E-04  3.80E-20  1.57E-18  0.00E+00  0.00E+00  5.95E-06  2.45E-04  3.78E-03  0.00000
    644.   15.528  6.01E-06  2.49E-04  2.87E-23  1.19E-21  0.00E+00  0.00E+00  6.01E-06  2.49E-04  3.80E-03  0.00000
    646.   15.480  6.11E-06  2.55E-04  2.54E-25  1.06E-23  0.00E+00  0.00E+00  6.11E-06  2.55E-04  3.81E-03  0.00000
    648.   15.432  6.46E-06  2.71E-04  3.97E-27  1.67E-25  0.00E+00  0.00E+00  6.46E-06  2.71E-04  3.82E-03  0.00000
    650.   15.385  6.49E-06  2.74E-04  3.34E-32  1.41E-30  0.00E+00  0.00E+00  6.49E-06  2.74E-04  3.83E-03  0.00000
    652.   15.337  6.20E-06  2.63E-04  1.04E-31  4.41E-30  0.00E+00  0.00E+00  6.20E-06  2.63E-04  3.85E-03  0.00000
    654.   15.291  6.09E-06  2.60E-04  1.11E-26  4.75E-25  0.00E+00  0.00E+00  6.09E-06  2.60E-04  3.86E-03  0.00000
    656.   15.244  6.07E-06  2.61E-04  1.11E-26  4.78E-25  0.00E+00  0.00E+00  6.07E-06  2.61E-04  3.87E-03  0.00000
    658.   15.198  6.11E-06  2.65E-04  9.16E-32  3.97E-30  0.00E+00  0.00E+00  6.11E-06  2.65E-04  3.88E-03  0.00000
    660.   15.152  6.08E-06  2.65E-04  8.28E-32  3.61E-30  0.00E+00  0.00E+00  6.08E-06  2.65E-04  3.89E-03  0.00000
    662.   15.106  6.30E-06  2.76E-04  7.05E-32  3.09E-30  0.00E+00  0.00E+00  6.30E-06  2.76E-04  3.91E-03  0.00000
    664.   15.060  6.31E-06  2.78E-04  0.00E+00  0.00E+00  0.00E+00  0.00E+00  6.31E-06  2.78E-04  3.92E-03  0.00000
    666.   15.015  6.88E-06  3.05E-04  0.00E+00  0.00E+00  0.00E+00  0.00E+00  6.88E-06  3.05E-04  3.93E-03  0.00000
    668.   14.970  8.04E-06  3.59E-04  0.00E+00  0.00E+00  0.00E+00  0.00E+00  8.04E-06  3.59E-04  3.95E-03  0.00000
    670.   14.925  7.10E-06  3.19E-04  0.00E+00  0.00E+00  0.00E+00  0.00E+00  7.10E-06  3.19E-04  3.96E-03  0.00000
    672.   14.881  6.18E-06  2.79E-04  3.08E-37  1.39E-35  0.00E+00  0.00E+00  6.18E-06  2.79E-04  3.98E-03  0.00000
    674.   14.837  6.03E-06  2.74E-04  1.12E-31  5.10E-30  0.00E+00  0.00E+00  6.03E-06  2.74E-04  3.99E-03  0.00000
    676.   14.793  5.94E-06  2.72E-04  3.37E-31  1.54E-29  0.00E+00  0.00E+00  5.94E-06  2.72E-04  4.00E-03  0.00000
    678.   14.749  6.00E-06  2.76E-04  1.12E-31  5.16E-30  0.00E+00  0.00E+00  6.00E-06  2.76E-04  4.01E-03  0.00000
    680.   14.706  5.97E-06  2.76E-04  1.63E-37  7.52E-36  0.00E+00  0.00E+00  5.97E-06  2.76E-04  4.02E-03  0.00000
    682.   14.663  5.92E-06  2.75E-04  2.97E-29  1.38E-27  0.00E+00  0.00E+00  5.92E-06  2.75E-04  4.04E-03  0.00000
    684.   14.620  5.79E-06  2.71E-04  1.01E-28  4.74E-27  0.00E+00  0.00E+00  5.79E-06  2.71E-04  4.05E-03  0.00000
    686.   14.577  5.75E-06  2.71E-04  6.68E-29  3.15E-27  0.00E+00  0.00E+00  5.75E-06  2.71E-04  4.06E-03  0.00000
    688.   14.535  5.73E-06  2.71E-04  2.77E-29  1.31E-27  0.00E+00  0.00E+00  5.73E-06  2.71E-04  4.07E-03  0.00000
    690.   14.493  5.66E-06  2.70E-04  4.27E-21  2.03E-19  0.00E+00  0.00E+00  5.66E-06  2.70E-04  4.08E-03  0.00000
    692.   14.451  5.45E-06  2.61E-04  2.17E-20  1.04E-18  0.00E+00  0.00E+00  5.45E-06  2.61E-04  4.09E-03  0.00000
    694.   14.409  5.39E-06  2.59E-04  4.22E-20  2.03E-18  0.00E+00  0.00E+00  5.39E-06  2.59E-04  4.10E-03  0.00000
    696.   14.368  5.33E-06  2.58E-04  1.71E-18  8.30E-17  0.00E+00  0.00E+00  5.33E-06  2.58E-04  4.11E-03  0.00000
    698.   14.327  5.25E-06  2.56E-04  1.87E-14  9.11E-13  0.00E+00  0.00E+00  5.25E-06  2.56E-04  4.12E-03  0.00000
    700.   14.286  5.17E-06  2.53E-04  5.80E-14  2.84E-12  0.00E+00  0.00E+00  5.17E-06  2.53E-04  4.13E-03  0.00000
  iv          705
1                                             RADIANCE(WATTS/CM2-STER-XXX)
0  FREQ   WAVLEN    PATH THERMAL      SURFACE EMISSION    SURFACE REFLECTED     TOTAL RADIANCE   INTEGRAL    TOTAL
  (CM-1) (MICRN)    (CM-1)   (MICRN)    (CM-1)   (MICRN)    (CM-1)   (MICRN)    (CM-1)   (MICRN)    (CM-1)   TRANS

    702.   14.245  5.19E-06  2.56E-04  2.68E-14  1.32E-12  0.00E+00  0.00E+00  5.19E-06  2.56E-04  4.15E-03  0.00000
    704.   14.205  5.25E-06  2.60E-04  8.89E-13  4.40E-11  0.00E+00  0.00E+00  5.25E-06  2.60E-04  4.16E-03  0.00000
    706.   14.164  5.33E-06  2.66E-04  1.24E-11  6.17E-10  0.00E+00  0.00E+00  5.33E-06  2.66E-04  4.17E-03  0.00000
    708.   14.124  5.42E-06  2.72E-04  2.30E-10  1.16E-08  0.00E+00  0.00E+00  5.42E-06  2.72E-04  4.18E-03  0.00002
    710.   14.085  5.52E-06  2.78E-04  1.61E-09  8.10E-08  0.00E+00  0.00E+00  5.52E-06  2.78E-04  4.19E-03  0.00013
    712.   14.045  5.70E-06  2.89E-04  3.91E-09  1.98E-07  0.00E+00  0.00E+00  5.70E-06  2.89E-04  4.20E-03  0.00032
    714.   14.006  5.86E-06  2.99E-04  7.22E-09  3.68E-07  0.00E+00  0.00E+00  5.87E-06  2.99E-04  4.21E-03  0.00059
    716.   13.966  5.91E-06  3.03E-04  1.26E-08  6.46E-07  0.00E+00  0.00E+00  5.92E-06  3.04E-04  4.22E-03  0.00103
    718.   13.928  5.55E-06  2.86E-04  5.66E-09  2.92E-07  0.00E+00  0.00E+00  5.56E-06  2.87E-04  4.23E-03  0.00046
    720.   13.889  5.43E-06  2.82E-04  1.53E-10  7.93E-09  0.00E+00  0.00E+00  5.43E-06  2.82E-04  4.25E-03  0.00001
    722.   13.850  6.01E-06  3.13E-04  4.72E-08  2.46E-06  0.00E+00  0.00E+00  6.05E-06  3.16E-04  4.26E-03  0.00390
    724.   13.812  6.49E-06  3.40E-04  1.98E-07  1.04E-05  0.00E+00  0.00E+00  6.69E-06  3.51E-04  4.27E-03  0.01640
    726.   13.774  6.74E-06  3.55E-04  3.78E-07  1.99E-05  0.00E+00  0.00E+00  7.12E-06  3.75E-04  4.28E-03  0.03127
    728.   13.736  6.62E-06  3.51E-04  2.25E-07  1.19E-05  0.00E+00  0.00E+00  6.85E-06  3.63E-04  4.30E-03  0.01865
    730.   13.699  6.32E-06  3.37E-04  8.90E-08  4.74E-06  0.00E+00  0.00E+00  6.41E-06  3.42E-04  4.31E-03  0.00740
    732.   13.661  6.27E-06  3.36E-04  1.03E-07  5.53E-06  0.00E+00  0.00E+00  6.38E-06  3.42E-04  4.32E-03  0.00860
    734.   13.624  6.34E-06  3.42E-04  1.37E-07  7.37E-06  0.00E+00  0.00E+00  6.48E-06  3.49E-04  4.34E-03  0.01141
    736.   13.587  6.34E-06  3.44E-04  1.46E-07  7.93E-06  0.00E+00  0.00E+00  6.49E-06  3.52E-04  4.35E-03  0.01224
    738.   13.550  6.31E-06  3.44E-04  1.17E-07  6.36E-06  0.00E+00  0.00E+00  6.42E-06  3.50E-04  4.36E-03  0.00979
    740.   13.514  6.06E-06  3.32E-04  5.69E-08  3.11E-06  0.00E+00  0.00E+00  6.12E-06  3.35E-04  4.38E-03  0.00478
    742.   13.477  6.14E-06  3.38E-04  2.07E-07  1.14E-05  0.00E+00  0.00E+00  6.35E-06  3.49E-04  4.39E-03  0.01748
    744.   13.441  6.80E-06  3.76E-04  5.11E-07  2.83E-05  0.00E+00  0.00E+00  7.31E-06  4.04E-04  4.40E-03  0.04315
    746.   13.405  6.91E-06  3.85E-04  8.54E-07  4.75E-05  0.00E+00  0.00E+00  7.77E-06  4.32E-04  4.42E-03  0.07227
    748.   13.369  6.91E-06  3.87E-04  1.07E-06  6.00E-05  0.00E+00  0.00E+00  7.98E-06  4.47E-04  4.43E-03  0.09098
    750.   13.333  6.84E-06  3.85E-04  1.37E-06  7.72E-05  0.00E+00  0.00E+00  8.21E-06  4.62E-04  4.45E-03  0.11656
    752.   13.298  6.90E-06  3.90E-04  1.54E-06  8.70E-05  0.00E+00  0.00E+00  8.44E-06  4.77E-04  4.47E-03  0.13104
    754.   13.263  7.17E-06  4.08E-04  1.30E-06  7.38E-05  0.00E+00  0.00E+00  8.47E-06  4.82E-04  4.48E-03  0.11071
    756.   13.228  6.97E-06  3.98E-04  1.68E-06  9.62E-05  0.00E+00  0.00E+00  8.65E-06  4.94E-04  4.50E-03  0.14404
    758.   13.193  6.16E-06  3.54E-04  3.11E-06  1.79E-04  0.00E+00  0.00E+00  9.27E-06  5.33E-04  4.52E-03  0.26709
    760.   13.158  5.70E-06  3.29E-04  4.13E-06  2.38E-04  0.00E+00  0.00E+00  9.82E-06  5.67E-04  4.54E-03  0.35457
    762.   13.123  5.31E-06  3.08E-04  4.79E-06  2.78E-04  0.00E+00  0.00E+00  1.01E-05  5.86E-04  4.56E-03  0.41271
    764.   13.089  4.87E-06  2.84E-04  5.44E-06  3.17E-04  0.00E+00  0.00E+00  1.03E-05  6.02E-04  4.58E-03  0.46962
    766.   13.055  4.76E-06  2.79E-04  5.69E-06  3.34E-04  0.00E+00  0.00E+00  1.05E-05  6.13E-04  4.60E-03  0.49282
    768.   13.021  5.14E-06  3.03E-04  5.26E-06  3.10E-04  0.00E+00  0.00E+00  1.04E-05  6.13E-04  4.62E-03  0.45615
    770.   12.987  5.19E-06  3.08E-04  5.19E-06  3.08E-04  0.00E+00  0.00E+00  1.04E-05  6.15E-04  4.64E-03  0.45148
    772.   12.953  4.19E-06  2.50E-04  6.49E-06  3.87E-04  0.00E+00  0.00E+00  1.07E-05  6.37E-04  4.66E-03  0.56602
    774.   12.920  4.29E-06  2.57E-04  6.38E-06  3.82E-04  0.00E+00  0.00E+00  1.07E-05  6.39E-04  4.69E-03  0.55765
    776.   12.887  5.48E-06  3.30E-04  4.81E-06  2.90E-04  0.00E+00  0.00E+00  1.03E-05  6.19E-04  4.71E-03  0.42139
    778.   12.853  5.07E-06  3.07E-04  5.31E-06  3.21E-04  0.00E+00  0.00E+00  1.04E-05  6.28E-04  4.73E-03  0.46668
    780.   12.821  3.99E-06  2.43E-04  6.70E-06  4.08E-04  0.00E+00  0.00E+00  1.07E-05  6.50E-04  4.75E-03  0.59008
    782.   12.788  3.93E-06  2.41E-04  6.68E-06  4.09E-04  0.00E+00  0.00E+00  1.06E-05  6.49E-04  4.77E-03  0.58995
    784.   12.755  5.07E-06  3.11E-04  5.16E-06  3.17E-04  0.00E+00  0.00E+00  1.02E-05  6.29E-04  4.79E-03  0.45704
    786.   12.723  4.05E-06  2.50E-04  6.53E-06  4.03E-04  0.00E+00  0.00E+00  1.06E-05  6.54E-04  4.81E-03  0.57965
    788.   12.690  3.06E-06  1.90E-04  7.77E-06  4.82E-04  0.00E+00  0.00E+00  1.08E-05  6.72E-04  4.83E-03  0.69132
    790.   12.658  3.65E-06  2.28E-04  6.69E-06  4.17E-04  0.00E+00  0.00E+00  1.03E-05  6.45E-04  4.85E-03  0.59654
    792.   12.626  5.09E-06  3.19E-04  4.38E-06  2.75E-04  0.00E+00  0.00E+00  9.47E-06  5.94E-04  4.87E-03  0.39147
    794.   12.594  5.59E-06  3.53E-04  4.19E-06  2.64E-04  0.00E+00  0.00E+00  9.79E-06  6.17E-04  4.89E-03  0.37619
    796.   12.563  5.64E-06  3.58E-04  4.24E-06  2.69E-04  0.00E+00  0.00E+00  9.89E-06  6.26E-04  4.91E-03  0.38152
    798.   12.531  5.80E-06  3.70E-04  3.92E-06  2.50E-04  0.00E+00  0.00E+00  9.73E-06  6.20E-04  4.93E-03  0.35386
    800.   12.500  4.61E-06  2.95E-04  5.43E-06  3.48E-04  0.00E+00  0.00E+00  1.00E-05  6.43E-04  4.95E-03  0.49122
  iv          805
1                                             RADIANCE(WATTS/CM2-STER-XXX)
0  FREQ   WAVLEN    PATH THERMAL      SURFACE EMISSION    SURFACE REFLECTED     TOTAL RADIANCE   INTEGRAL    TOTAL
  (CM-1) (MICRN)    (CM-1)   (MICRN)    (CM-1)   (MICRN)    (CM-1)   (MICRN)    (CM-1)   (MICRN)    (CM-1)   TRANS

    802.   12.469  3.96E-06  2.55E-04  6.38E-06  4.10E-04  0.00E+00  0.00E+00  1.03E-05  6.65E-04  4.97E-03  0.57819
    804.   12.438  4.47E-06  2.89E-04  5.69E-06  3.68E-04  0.00E+00  0.00E+00  1.02E-05  6.57E-04  4.99E-03  0.51723
    806.   12.407  3.81E-06  2.48E-04  6.49E-06  4.22E-04  0.00E+00  0.00E+00  1.03E-05  6.70E-04  5.01E-03  0.59192
    808.   12.376  4.04E-06  2.64E-04  6.17E-06  4.03E-04  0.00E+00  0.00E+00  1.02E-05  6.67E-04  5.03E-03  0.56442
    810.   12.346  3.16E-06  2.08E-04  7.24E-06  4.75E-04  0.00E+00  0.00E+00  1.04E-05  6.83E-04  5.05E-03  0.66370
    812.   12.315  2.96E-06  1.95E-04  7.48E-06  4.93E-04  0.00E+00  0.00E+00  1.04E-05  6.88E-04  5.08E-03  0.68710
    814.   12.285  3.94E-06  2.61E-04  6.27E-06  4.16E-04  0.00E+00  0.00E+00  1.02E-05  6.77E-04  5.10E-03  0.57817
    816.   12.255  3.36E-06  2.24E-04  6.94E-06  4.62E-04  0.00E+00  0.00E+00  1.03E-05  6.86E-04  5.12E-03  0.64208
    818.   12.225  2.45E-06  1.64E-04  8.03E-06  5.37E-04  0.00E+00  0.00E+00  1.05E-05  7.01E-04  5.14E-03  0.74463
    820.   12.195  2.35E-06  1.58E-04  8.12E-06  5.46E-04  0.00E+00  0.00E+00  1.05E-05  7.04E-04  5.16E-03  0.75510
    822.   12.165  2.31E-06  1.56E-04  8.14E-06  5.50E-04  0.00E+00  0.00E+00  1.05E-05  7.06E-04  5.18E-03  0.75908
    824.   12.136  2.58E-06  1.75E-04  7.78E-06  5.28E-04  0.00E+00  0.00E+00  1.04E-05  7.04E-04  5.20E-03  0.72725
    826.   12.107  3.09E-06  2.11E-04  7.15E-06  4.88E-04  0.00E+00  0.00E+00  1.02E-05  6.98E-04  5.22E-03  0.67037
    828.   12.077  3.37E-06  2.31E-04  6.77E-06  4.64E-04  0.00E+00  0.00E+00  1.01E-05  6.95E-04  5.24E-03  0.63637
    830.   12.048  2.48E-06  1.71E-04  7.81E-06  5.38E-04  0.00E+00  0.00E+00  1.03E-05  7.09E-04  5.26E-03  0.73686
    832.   12.019  2.10E-06  1.45E-04  8.24E-06  5.71E-04  0.00E+00  0.00E+00  1.03E-05  7.16E-04  5.28E-03  0.77990
    834.   11.990  2.14E-06  1.49E-04  8.16E-06  5.68E-04  0.00E+00  0.00E+00  1.03E-05  7.17E-04  5.30E-03  0.77460
    836.   11.962  2.27E-06  1.58E-04  7.99E-06  5.58E-04  0.00E+00  0.00E+00  1.03E-05  7.17E-04  5.32E-03  0.75999
    838.   11.933  2.50E-06  1.75E-04  7.66E-06  5.38E-04  0.00E+00  0.00E+00  1.02E-05  7.13E-04  5.34E-03  0.73120
    840.   11.905  3.19E-06  2.25E-04  6.79E-06  4.79E-04  0.00E+00  0.00E+00  9.97E-06  7.04E-04  5.36E-03  0.64968
    842.   11.876  2.65E-06  1.88E-04  7.39E-06  5.24E-04  0.00E+00  0.00E+00  1.00E-05  7.12E-04  5.38E-03  0.70964
    844.   11.848  2.09E-06  1.49E-04  8.03E-06  5.72E-04  0.00E+00  0.00E+00  1.01E-05  7.20E-04  5.40E-03  0.77309
    846.   11.820  2.00E-06  1.43E-04  8.09E-06  5.79E-04  0.00E+00  0.00E+00  1.01E-05  7.22E-04  5.42E-03  0.78169
    848.   11.792  2.30E-06  1.66E-04  7.68E-06  5.52E-04  0.00E+00  0.00E+00  9.99E-06  7.18E-04  5.44E-03  0.74433
    850.   11.765  3.26E-06  2.35E-04  6.45E-06  4.66E-04  0.00E+00  0.00E+00  9.70E-06  7.01E-04  5.46E-03  0.62666
    852.   11.737  4.12E-06  2.99E-04  5.35E-06  3.88E-04  0.00E+00  0.00E+00  9.47E-06  6.87E-04  5.48E-03  0.52175
    854.   11.710  3.63E-06  2.65E-04  5.99E-06  4.37E-04  0.00E+00  0.00E+00  9.62E-06  7.02E-04  5.50E-03  0.58638
    856.   11.682  2.48E-06  1.82E-04  7.36E-06  5.39E-04  0.00E+00  0.00E+00  9.85E-06  7.21E-04  5.52E-03  0.72268
    858.   11.655  1.91E-06  1.41E-04  8.03E-06  5.91E-04  0.00E+00  0.00E+00  9.94E-06  7.32E-04  5.54E-03  0.79051
    860.   11.628  1.91E-06  1.41E-04  8.01E-06  5.92E-04  0.00E+00  0.00E+00  9.92E-06  7.33E-04  5.56E-03  0.79065
    862.   11.601  1.77E-06  1.32E-04  8.13E-06  6.04E-04  0.00E+00  0.00E+00  9.90E-06  7.36E-04  5.58E-03  0.80544
    864.   11.574  2.21E-06  1.65E-04  7.57E-06  5.65E-04  0.00E+00  0.00E+00  9.78E-06  7.30E-04  5.60E-03  0.75225
    866.   11.547  2.21E-06  1.66E-04  7.54E-06  5.65E-04  0.00E+00  0.00E+00  9.75E-06  7.31E-04  5.62E-03  0.75184
    868.   11.521  1.71E-06  1.29E-04  8.10E-06  6.11E-04  0.00E+00  0.00E+00  9.81E-06  7.39E-04  5.64E-03  0.81082
    870.   11.494  2.10E-06  1.59E-04  7.57E-06  5.73E-04  0.00E+00  0.00E+00  9.67E-06  7.32E-04  5.66E-03  0.75971
    872.   11.468  2.13E-06  1.62E-04  7.50E-06  5.71E-04  0.00E+00  0.00E+00  9.63E-06  7.32E-04  5.68E-03  0.75576
    874.   11.442  1.67E-06  1.27E-04  8.05E-06  6.15E-04  0.00E+00  0.00E+00  9.71E-06  7.42E-04  5.70E-03  0.81276
    876.   11.416  1.66E-06  1.28E-04  8.02E-06  6.15E-04  0.00E+00  0.00E+00  9.68E-06  7.43E-04  5.72E-03  0.81257
    878.   11.390  2.00E-06  1.54E-04  7.58E-06  5.84E-04  0.00E+00  0.00E+00  9.58E-06  7.38E-04  5.74E-03  0.77048
    880.   11.364  2.09E-06  1.62E-04  7.43E-06  5.75E-04  0.00E+00  0.00E+00  9.52E-06  7.37E-04  5.75E-03  0.75768
    882.   11.338  2.00E-06  1.56E-04  7.50E-06  5.84E-04  0.00E+00  0.00E+00  9.51E-06  7.40E-04  5.77E-03  0.76819
    884.   11.312  2.16E-06  1.69E-04  7.27E-06  5.68E-04  0.00E+00  0.00E+00  9.44E-06  7.37E-04  5.79E-03  0.74688
    886.   11.287  2.21E-06  1.74E-04  7.14E-06  5.61E-04  0.00E+00  0.00E+00  9.36E-06  7.34E-04  5.81E-03  0.73625
    888.   11.261  2.33E-06  1.84E-04  6.98E-06  5.50E-04  0.00E+00  0.00E+00  9.31E-06  7.34E-04  5.83E-03  0.72134
    890.   11.236  2.01E-06  1.59E-04  7.37E-06  5.84E-04  0.00E+00  0.00E+00  9.38E-06  7.43E-04  5.85E-03  0.76451
    892.   11.211  1.65E-06  1.32E-04  7.75E-06  6.17E-04  0.00E+00  0.00E+00  9.40E-06  7.48E-04  5.87E-03  0.80696
    894.   11.186  1.47E-06  1.17E-04  7.93E-06  6.34E-04  0.00E+00  0.00E+00  9.40E-06  7.51E-04  5.89E-03  0.82874
    896.   11.161  1.52E-06  1.22E-04  7.85E-06  6.30E-04  0.00E+00  0.00E+00  9.36E-06  7.52E-04  5.90E-03  0.82241
    898.   11.136  1.56E-06  1.26E-04  7.77E-06  6.26E-04  0.00E+00  0.00E+00  9.32E-06  7.52E-04  5.92E-03  0.81685
    900.   11.111  1.45E-06  1.17E-04  7.85E-06  6.36E-04  0.00E+00  0.00E+00  9.30E-06  7.54E-04  5.94E-03  0.82905
  iv          905
1                                             RADIANCE(WATTS/CM2-STER-XXX)
0  FREQ   WAVLEN    PATH THERMAL      SURFACE EMISSION    SURFACE REFLECTED     TOTAL RADIANCE   INTEGRAL    TOTAL
  (CM-1) (MICRN)    (CM-1)   (MICRN)    (CM-1)   (MICRN)    (CM-1)   (MICRN)    (CM-1)   (MICRN)    (CM-1)   TRANS

    902.   11.086  1.42E-06  1.15E-04  7.86E-06  6.39E-04  0.00E+00  0.00E+00  9.27E-06  7.55E-04  5.96E-03  0.83246
    904.   11.062  1.50E-06  1.23E-04  7.72E-06  6.31E-04  0.00E+00  0.00E+00  9.23E-06  7.54E-04  5.98E-03  0.82094
    906.   11.038  1.71E-06  1.40E-04  7.45E-06  6.11E-04  0.00E+00  0.00E+00  9.16E-06  7.52E-04  6.00E-03  0.79427
    908.   11.013  2.10E-06  1.73E-04  6.91E-06  5.70E-04  0.00E+00  0.00E+00  9.01E-06  7.43E-04  6.02E-03  0.73954
    910.   10.989  2.00E-06  1.66E-04  6.99E-06  5.79E-04  0.00E+00  0.00E+00  8.99E-06  7.44E-04  6.03E-03  0.75098
    912.   10.965  1.50E-06  1.25E-04  7.58E-06  6.31E-04  0.00E+00  0.00E+00  9.08E-06  7.55E-04  6.05E-03  0.81715
    914.   10.941  1.53E-06  1.28E-04  7.51E-06  6.27E-04  0.00E+00  0.00E+00  9.03E-06  7.55E-04  6.07E-03  0.81212
    916.   10.917  1.48E-06  1.24E-04  7.53E-06  6.32E-04  0.00E+00  0.00E+00  9.01E-06  7.56E-04  6.09E-03  0.81735
    918.   10.893  1.54E-06  1.30E-04  7.42E-06  6.25E-04  0.00E+00  0.00E+00  8.96E-06  7.55E-04  6.11E-03  0.80825
    920.   10.870  1.68E-06  1.42E-04  7.21E-06  6.10E-04  0.00E+00  0.00E+00  8.89E-06  7.52E-04  6.12E-03  0.78781
    922.   10.846  2.03E-06  1.72E-04  6.74E-06  5.73E-04  0.00E+00  0.00E+00  8.76E-06  7.45E-04  6.14E-03  0.73911
    924.   10.823  1.95E-06  1.66E-04  6.80E-06  5.80E-04  0.00E+00  0.00E+00  8.74E-06  7.46E-04  6.16E-03  0.74841
    926.   10.799  1.70E-06  1.46E-04  7.06E-06  6.05E-04  0.00E+00  0.00E+00  8.76E-06  7.51E-04  6.18E-03  0.78035
    928.   10.776  1.41E-06  1.22E-04  7.38E-06  6.36E-04  0.00E+00  0.00E+00  8.80E-06  7.58E-04  6.19E-03  0.81907
    930.   10.753  1.42E-06  1.23E-04  7.34E-06  6.35E-04  0.00E+00  0.00E+00  8.76E-06  7.57E-04  6.21E-03  0.81690
    932.   10.730  1.37E-06  1.19E-04  7.36E-06  6.39E-04  0.00E+00  0.00E+00  8.73E-06  7.58E-04  6.23E-03  0.82236
    934.   10.707  1.36E-06  1.19E-04  7.33E-06  6.40E-04  0.00E+00  0.00E+00  8.70E-06  7.59E-04  6.25E-03  0.82276
    936.   10.684  1.38E-06  1.21E-04  7.28E-06  6.38E-04  0.00E+00  0.00E+00  8.66E-06  7.59E-04  6.26E-03  0.82003
    938.   10.661  1.39E-06  1.22E-04  7.23E-06  6.37E-04  0.00E+00  0.00E+00  8.62E-06  7.58E-04  6.28E-03  0.81756
    940.   10.638  1.50E-06  1.33E-04  7.04E-06  6.22E-04  0.00E+00  0.00E+00  8.54E-06  7.55E-04  6.30E-03  0.79879
    942.   10.616  1.57E-06  1.39E-04  6.91E-06  6.13E-04  0.00E+00  0.00E+00  8.47E-06  7.52E-04  6.31E-03  0.78629
    944.   10.593  1.54E-06  1.37E-04  6.91E-06  6.16E-04  0.00E+00  0.00E+00  8.45E-06  7.53E-04  6.33E-03  0.78944
    946.   10.571  1.73E-06  1.55E-04  6.63E-06  5.94E-04  0.00E+00  0.00E+00  8.36E-06  7.48E-04  6.35E-03  0.76091
    948.   10.549  2.03E-06  1.82E-04  6.19E-06  5.56E-04  0.00E+00  0.00E+00  8.22E-06  7.38E-04  6.36E-03  0.71240
    950.   10.526  1.60E-06  1.44E-04  6.71E-06  6.06E-04  0.00E+00  0.00E+00  8.31E-06  7.50E-04  6.38E-03  0.77614
    952.   10.504  1.48E-06  1.34E-04  6.85E-06  6.21E-04  0.00E+00  0.00E+00  8.34E-06  7.55E-04  6.40E-03  0.79525
    954.   10.482  1.68E-06  1.53E-04  6.57E-06  5.98E-04  0.00E+00  0.00E+00  8.25E-06  7.51E-04  6.41E-03  0.76498
    956.   10.460  1.57E-06  1.43E-04  6.68E-06  6.10E-04  0.00E+00  0.00E+00  8.24E-06  7.53E-04  6.43E-03  0.78088
    958.   10.438  1.30E-06  1.20E-04  6.99E-06  6.42E-04  0.00E+00  0.00E+00  8.30E-06  7.61E-04  6.45E-03  0.82063
    960.   10.417  1.24E-06  1.14E-04  7.07E-06  6.51E-04  0.00E+00  0.00E+00  8.31E-06  7.65E-04  6.46E-03  0.83237
    962.   10.395  1.12E-06  1.03E-04  7.17E-06  6.64E-04  0.00E+00  0.00E+00  8.29E-06  7.67E-04  6.48E-03  0.84806
    964.   10.373  1.17E-06  1.09E-04  7.04E-06  6.54E-04  0.00E+00  0.00E+00  8.21E-06  7.63E-04  6.50E-03  0.83552
    966.   10.352  1.39E-06  1.30E-04  6.72E-06  6.27E-04  0.00E+00  0.00E+00  8.11E-06  7.56E-04  6.51E-03  0.80058
    968.   10.331  1.40E-06  1.31E-04  6.65E-06  6.23E-04  0.00E+00  0.00E+00  8.05E-06  7.54E-04  6.53E-03  0.79529
    970.   10.309  1.51E-06  1.42E-04  6.46E-06  6.08E-04  0.00E+00  0.00E+00  7.97E-06  7.50E-04  6.55E-03  0.77600
    972.   10.288  1.82E-06  1.72E-04  6.04E-06  5.71E-04  0.00E+00  0.00E+00  7.85E-06  7.42E-04  6.56E-03  0.72818
    974.   10.267  1.75E-06  1.66E-04  6.09E-06  5.78E-04  0.00E+00  0.00E+00  7.84E-06  7.44E-04  6.58E-03  0.73752
    976.   10.246  1.81E-06  1.73E-04  5.95E-06  5.67E-04  0.00E+00  0.00E+00  7.77E-06  7.40E-04  6.59E-03  0.72370
    978.   10.225  1.49E-06  1.42E-04  6.34E-06  6.06E-04  0.00E+00  0.00E+00  7.82E-06  7.48E-04  6.61E-03  0.77324
    980.   10.204  1.24E-06  1.19E-04  6.61E-06  6.35E-04  0.00E+00  0.00E+00  7.84E-06  7.53E-04  6.62E-03  0.80967
    982.   10.183  1.25E-06  1.21E-04  6.54E-06  6.30E-04  0.00E+00  0.00E+00  7.79E-06  7.51E-04  6.64E-03  0.80414
    984.   10.163  1.18E-06  1.15E-04  6.59E-06  6.38E-04  0.00E+00  0.00E+00  7.77E-06  7.53E-04  6.65E-03  0.81375
    986.   10.142  1.03E-06  1.01E-04  6.71E-06  6.53E-04  0.00E+00  0.00E+00  7.75E-06  7.53E-04  6.67E-03  0.83221
    988.   10.121  1.01E-06  9.83E-05  6.66E-06  6.50E-04  0.00E+00  0.00E+00  7.67E-06  7.48E-04  6.69E-03  0.82903
    990.   10.101  1.01E-06  9.95E-05  6.57E-06  6.43E-04  0.00E+00  0.00E+00  7.58E-06  7.43E-04  6.70E-03  0.82052
    992.   10.081  1.01E-06  9.93E-05  6.45E-06  6.35E-04  0.00E+00  0.00E+00  7.46E-06  7.34E-04  6.72E-03  0.80973
    994.   10.060  1.02E-06  1.01E-04  6.32E-06  6.24E-04  0.00E+00  0.00E+00  7.34E-06  7.26E-04  6.73E-03  0.79623
    996.   10.040  1.07E-06  1.06E-04  6.12E-06  6.07E-04  0.00E+00  0.00E+00  7.19E-06  7.13E-04  6.74E-03  0.77387
    998.   10.020  1.26E-06  1.26E-04  5.71E-06  5.69E-04  0.00E+00  0.00E+00  6.98E-06  6.95E-04  6.76E-03  0.72566
   1000.   10.000  1.41E-06  1.41E-04  5.37E-06  5.37E-04  0.00E+00  0.00E+00  6.79E-06  6.79E-04  6.77E-03  0.68501
  iv         1005
1                                             RADIANCE(WATTS/CM2-STER-XXX)
0  FREQ   WAVLEN    PATH THERMAL      SURFACE EMISSION    SURFACE REFLECTED     TOTAL RADIANCE   INTEGRAL    TOTAL
  (CM-1) (MICRN)    (CM-1)   (MICRN)    (CM-1)   (MICRN)    (CM-1)   (MICRN)    (CM-1)   (MICRN)    (CM-1)   TRANS

   1002.    9.980  1.36E-06  1.37E-04  5.22E-06  5.24E-04  0.00E+00  0.00E+00  6.58E-06  6.61E-04  6.79E-03  0.66811
   1004.    9.960  1.46E-06  1.47E-04  4.91E-06  4.95E-04  0.00E+00  0.00E+00  6.37E-06  6.42E-04  6.80E-03  0.63156
   1006.    9.940  1.47E-06  1.49E-04  4.64E-06  4.70E-04  0.00E+00  0.00E+00  6.11E-06  6.18E-04  6.81E-03  0.59927
   1008.    9.921  1.52E-06  1.55E-04  4.43E-06  4.50E-04  0.00E+00  0.00E+00  5.95E-06  6.05E-04  6.82E-03  0.57467
   1010.    9.901  1.80E-06  1.84E-04  3.89E-06  3.97E-04  0.00E+00  0.00E+00  5.69E-06  5.80E-04  6.83E-03  0.50603
   1012.    9.881  1.87E-06  1.91E-04  3.54E-06  3.63E-04  0.00E+00  0.00E+00  5.41E-06  5.54E-04  6.84E-03  0.46344
   1014.    9.862  1.93E-06  1.99E-04  3.28E-06  3.37E-04  0.00E+00  0.00E+00  5.21E-06  5.36E-04  6.85E-03  0.43023
   1016.    9.843  1.90E-06  1.96E-04  3.17E-06  3.28E-04  0.00E+00  0.00E+00  5.07E-06  5.24E-04  6.86E-03  0.41851
   1018.    9.823  1.98E-06  2.05E-04  2.85E-06  2.95E-04  0.00E+00  0.00E+00  4.83E-06  5.00E-04  6.87E-03  0.37676
   1020.    9.804  1.89E-06  1.97E-04  2.77E-06  2.88E-04  0.00E+00  0.00E+00  4.66E-06  4.85E-04  6.88E-03  0.36791
   1022.    9.785  1.87E-06  1.96E-04  2.65E-06  2.77E-04  0.00E+00  0.00E+00  4.52E-06  4.72E-04  6.89E-03  0.35349
   1024.    9.766  1.87E-06  1.96E-04  2.57E-06  2.69E-04  0.00E+00  0.00E+00  4.43E-06  4.65E-04  6.90E-03  0.34410
   1026.    9.747  1.88E-06  1.98E-04  2.54E-06  2.67E-04  0.00E+00  0.00E+00  4.42E-06  4.66E-04  6.91E-03  0.34180
   1028.    9.728  2.09E-06  2.21E-04  2.21E-06  2.34E-04  0.00E+00  0.00E+00  4.31E-06  4.55E-04  6.92E-03  0.29915
   1030.    9.709  2.10E-06  2.23E-04  2.12E-06  2.25E-04  0.00E+00  0.00E+00  4.22E-06  4.48E-04  6.93E-03  0.28771
   1032.    9.690  1.93E-06  2.06E-04  2.34E-06  2.49E-04  0.00E+00  0.00E+00  4.27E-06  4.55E-04  6.94E-03  0.31925
   1034.    9.671  1.88E-06  2.01E-04  2.33E-06  2.49E-04  0.00E+00  0.00E+00  4.21E-06  4.51E-04  6.94E-03  0.31913
   1036.    9.653  1.93E-06  2.07E-04  2.14E-06  2.29E-04  0.00E+00  0.00E+00  4.07E-06  4.36E-04  6.95E-03  0.29366
   1038.    9.634  2.03E-06  2.19E-04  1.85E-06  1.99E-04  0.00E+00  0.00E+00  3.88E-06  4.18E-04  6.96E-03  0.25487
   1040.    9.615  2.03E-06  2.19E-04  1.80E-06  1.95E-04  0.00E+00  0.00E+00  3.83E-06  4.14E-04  6.97E-03  0.24979
   1042.    9.597  1.65E-06  1.79E-04  3.18E-06  3.45E-04  0.00E+00  0.00E+00  4.83E-06  5.25E-04  6.98E-03  0.44339
   1044.    9.579  1.39E-06  1.51E-04  4.11E-06  4.48E-04  0.00E+00  0.00E+00  5.50E-06  5.99E-04  6.99E-03  0.57527
   1046.    9.560  1.63E-06  1.78E-04  2.99E-06  3.27E-04  0.00E+00  0.00E+00  4.61E-06  5.05E-04  7.00E-03  0.41940
   1048.    9.542  1.94E-06  2.13E-04  1.95E-06  2.14E-04  0.00E+00  0.00E+00  3.89E-06  4.27E-04  7.01E-03  0.27482
   1050.    9.524  2.09E-06  2.30E-04  1.52E-06  1.67E-04  0.00E+00  0.00E+00  3.61E-06  3.98E-04  7.01E-03  0.21476
   1052.    9.506  2.06E-06  2.28E-04  1.43E-06  1.58E-04  0.00E+00  0.00E+00  3.49E-06  3.86E-04  7.02E-03  0.20357
   1054.    9.488  2.04E-06  2.27E-04  1.37E-06  1.52E-04  0.00E+00  0.00E+00  3.41E-06  3.79E-04  7.03E-03  0.19586
   1056.    9.470  2.07E-06  2.31E-04  1.33E-06  1.49E-04  0.00E+00  0.00E+00  3.41E-06  3.80E-04  7.03E-03  0.19161
   1058.    9.452  1.99E-06  2.23E-04  1.64E-06  1.83E-04  0.00E+00  0.00E+00  3.63E-06  4.06E-04  7.04E-03  0.23627
   1060.    9.434  1.92E-06  2.15E-04  1.99E-06  2.24E-04  0.00E+00  0.00E+00  3.91E-06  4.40E-04  7.05E-03  0.28911
   1062.    9.416  1.78E-06  2.01E-04  2.45E-06  2.77E-04  0.00E+00  0.00E+00  4.24E-06  4.78E-04  7.06E-03  0.35691
   1064.    9.398  1.69E-06  1.92E-04  3.06E-06  3.46E-04  0.00E+00  0.00E+00  4.75E-06  5.38E-04  7.07E-03  0.44695
   1066.    9.381  1.85E-06  2.10E-04  3.37E-06  3.83E-04  0.00E+00  0.00E+00  5.23E-06  5.94E-04  7.08E-03  0.49549
   1068.    9.363  1.44E-06  1.64E-04  4.26E-06  4.86E-04  0.00E+00  0.00E+00  5.70E-06  6.50E-04  7.09E-03  0.62831
   1070.    9.346  1.09E-06  1.25E-04  4.98E-06  5.70E-04  0.00E+00  0.00E+00  6.07E-06  6.94E-04  7.10E-03  0.73761
   1072.    9.328  1.29E-06  1.49E-04  4.87E-06  5.60E-04  0.00E+00  0.00E+00  6.17E-06  7.09E-04  7.11E-03  0.72513
   1074.    9.311  1.72E-06  1.99E-04  4.30E-06  4.96E-04  0.00E+00  0.00E+00  6.03E-06  6.95E-04  7.13E-03  0.64297
   1076.    9.294  1.40E-06  1.62E-04  4.66E-06  5.40E-04  0.00E+00  0.00E+00  6.06E-06  7.02E-04  7.14E-03  0.70006
   1078.    9.276  1.04E-06  1.21E-04  5.14E-06  5.97E-04  0.00E+00  0.00E+00  6.18E-06  7.18E-04  7.15E-03  0.77454
   1080.    9.259  1.12E-06  1.30E-04  4.96E-06  5.78E-04  0.00E+00  0.00E+00  6.07E-06  7.09E-04  7.16E-03  0.75085
   1082.    9.242  1.06E-06  1.25E-04  5.02E-06  5.87E-04  0.00E+00  0.00E+00  6.08E-06  7.12E-04  7.17E-03  0.76339
   1084.    9.225  9.68E-07  1.14E-04  5.19E-06  6.10E-04  0.00E+00  0.00E+00  6.16E-06  7.24E-04  7.19E-03  0.79366
   1086.    9.208  9.83E-07  1.16E-04  5.13E-06  6.05E-04  0.00E+00  0.00E+00  6.11E-06  7.21E-04  7.20E-03  0.78776
   1088.    9.191  8.54E-07  1.01E-04  5.27E-06  6.23E-04  0.00E+00  0.00E+00  6.12E-06  7.24E-04  7.21E-03  0.81235
   1090.    9.174  1.14E-06  1.35E-04  4.92E-06  5.84E-04  0.00E+00  0.00E+00  6.05E-06  7.19E-04  7.22E-03  0.76212
   1092.    9.158  1.11E-06  1.32E-04  4.95E-06  5.91E-04  0.00E+00  0.00E+00  6.06E-06  7.22E-04  7.23E-03  0.77111
   1094.    9.141  6.19E-07  7.41E-05  5.52E-06  6.61E-04  0.00E+00  0.00E+00  6.14E-06  7.35E-04  7.25E-03  0.86386
   1096.    9.124  5.43E-07  6.53E-05  5.61E-06  6.73E-04  0.00E+00  0.00E+00  6.15E-06  7.39E-04  7.26E-03  0.88088
   1098.    9.107  7.68E-07  9.26E-05  5.31E-06  6.40E-04  0.00E+00  0.00E+00  6.07E-06  7.32E-04  7.27E-03  0.83712
   1100.    9.091  1.52E-06  1.83E-04  4.31E-06  5.21E-04  0.00E+00  0.00E+00  5.83E-06  7.05E-04  7.28E-03  0.68319
  iv         1105
1                                             RADIANCE(WATTS/CM2-STER-XXX)
0  FREQ   WAVLEN    PATH THERMAL      SURFACE EMISSION    SURFACE REFLECTED     TOTAL RADIANCE   INTEGRAL    TOTAL
  (CM-1) (MICRN)    (CM-1)   (MICRN)    (CM-1)   (MICRN)    (CM-1)   (MICRN)    (CM-1)   (MICRN)    (CM-1)   TRANS

   1102.    9.074  1.21E-06  1.46E-04  4.68E-06  5.68E-04  0.00E+00  0.00E+00  5.88E-06  7.15E-04  7.30E-03  0.74555
   1104.    9.058  6.60E-07  8.05E-05  5.37E-06  6.55E-04  0.00E+00  0.00E+00  6.03E-06  7.35E-04  7.31E-03  0.85942
   1106.    9.042  1.23E-06  1.50E-04  4.61E-06  5.64E-04  0.00E+00  0.00E+00  5.84E-06  7.14E-04  7.32E-03  0.74088
   1108.    9.025  1.14E-06  1.40E-04  4.69E-06  5.76E-04  0.00E+00  0.00E+00  5.83E-06  7.16E-04  7.33E-03  0.75748
   1110.    9.009  9.21E-07  1.14E-04  4.94E-06  6.09E-04  0.00E+00  0.00E+00  5.87E-06  7.23E-04  7.34E-03  0.80215
   1112.    8.993  1.33E-06  1.65E-04  4.34E-06  5.37E-04  0.00E+00  0.00E+00  5.68E-06  7.02E-04  7.35E-03  0.70788
   1114.    8.977  7.60E-07  9.43E-05  5.06E-06  6.28E-04  0.00E+00  0.00E+00  5.82E-06  7.22E-04  7.37E-03  0.82857
   1116.    8.961  5.63E-07  7.01E-05  5.29E-06  6.59E-04  0.00E+00  0.00E+00  5.85E-06  7.29E-04  7.38E-03  0.87050
   1118.    8.945  7.03E-07  8.79E-05  5.07E-06  6.34E-04  0.00E+00  0.00E+00  5.77E-06  7.22E-04  7.39E-03  0.83848
   1120.    8.929  1.30E-06  1.63E-04  4.23E-06  5.30E-04  0.00E+00  0.00E+00  5.53E-06  6.94E-04  7.40E-03  0.70219
   1122.    8.913  1.32E-06  1.66E-04  4.17E-06  5.25E-04  0.00E+00  0.00E+00  5.49E-06  6.91E-04  7.41E-03  0.69616
   1124.    8.897  6.04E-07  7.64E-05  5.08E-06  6.41E-04  0.00E+00  0.00E+00  5.68E-06  7.18E-04  7.42E-03  0.85111
   1126.    8.881  4.96E-07  6.29E-05  5.18E-06  6.57E-04  0.00E+00  0.00E+00  5.68E-06  7.20E-04  7.43E-03  0.87286
   1128.    8.865  4.79E-07  6.10E-05  5.19E-06  6.60E-04  0.00E+00  0.00E+00  5.67E-06  7.21E-04  7.44E-03  0.87861
   1130.    8.850  5.10E-07  6.51E-05  5.13E-06  6.56E-04  0.00E+00  0.00E+00  5.64E-06  7.21E-04  7.46E-03  0.87319
   1132.    8.834  5.94E-07  7.62E-05  5.03E-06  6.44E-04  0.00E+00  0.00E+00  5.62E-06  7.20E-04  7.47E-03  0.85880
   1134.    8.818  1.44E-06  1.86E-04  3.89E-06  5.00E-04  0.00E+00  0.00E+00  5.33E-06  6.85E-04  7.48E-03  0.66675
   1136.    8.803  2.54E-06  3.28E-04  2.27E-06  2.93E-04  0.00E+00  0.00E+00  4.81E-06  6.21E-04  7.49E-03  0.39125
   1138.    8.787  1.64E-06  2.12E-04  3.55E-06  4.60E-04  0.00E+00  0.00E+00  5.19E-06  6.72E-04  7.50E-03  0.61581
   1140.    8.772  6.49E-07  8.43E-05  4.91E-06  6.38E-04  0.00E+00  0.00E+00  5.55E-06  7.22E-04  7.51E-03  0.85461
   1142.    8.757  5.57E-07  7.27E-05  4.99E-06  6.50E-04  0.00E+00  0.00E+00  5.54E-06  7.23E-04  7.52E-03  0.87288
   1144.    8.741  4.74E-07  6.21E-05  5.05E-06  6.62E-04  0.00E+00  0.00E+00  5.53E-06  7.24E-04  7.53E-03  0.88897
   1146.    8.726  4.71E-07  6.18E-05  5.03E-06  6.61E-04  0.00E+00  0.00E+00  5.51E-06  7.23E-04  7.54E-03  0.88970
   1148.    8.711  1.05E-06  1.39E-04  4.24E-06  5.58E-04  0.00E+00  0.00E+00  5.29E-06  6.97E-04  7.55E-03  0.75166
   1150.    8.696  1.51E-06  2.00E-04  3.63E-06  4.80E-04  0.00E+00  0.00E+00  5.14E-06  6.79E-04  7.56E-03  0.64727
   1152.    8.681  1.57E-06  2.08E-04  3.53E-06  4.69E-04  0.00E+00  0.00E+00  5.10E-06  6.77E-04  7.57E-03  0.63352
   1154.    8.666  9.07E-07  1.21E-04  4.38E-06  5.83E-04  0.00E+00  0.00E+00  5.29E-06  7.04E-04  7.58E-03  0.78970
   1156.    8.651  4.60E-07  6.15E-05  4.92E-06  6.58E-04  0.00E+00  0.00E+00  5.38E-06  7.19E-04  7.59E-03  0.89105
   1158.    8.636  4.24E-07  5.69E-05  4.94E-06  6.62E-04  0.00E+00  0.00E+00  5.36E-06  7.19E-04  7.61E-03  0.89859
   1160.    8.621  4.46E-07  6.00E-05  4.89E-06  6.57E-04  0.00E+00  0.00E+00  5.33E-06  7.17E-04  7.62E-03  0.89306
   1162.    8.606  5.27E-07  7.11E-05  4.77E-06  6.44E-04  0.00E+00  0.00E+00  5.30E-06  7.15E-04  7.63E-03  0.87597
   1164.    8.591  1.35E-06  1.82E-04  3.63E-06  4.92E-04  0.00E+00  0.00E+00  4.98E-06  6.74E-04  7.64E-03  0.66954
   1166.    8.576  1.67E-06  2.27E-04  3.18E-06  4.33E-04  0.00E+00  0.00E+00  4.85E-06  6.60E-04  7.65E-03  0.59102
   1168.    8.562  7.53E-07  1.03E-04  4.42E-06  6.03E-04  0.00E+00  0.00E+00  5.17E-06  7.05E-04  7.66E-03  0.82361
   1170.    8.547  6.34E-07  8.68E-05  4.55E-06  6.23E-04  0.00E+00  0.00E+00  5.19E-06  7.10E-04  7.67E-03  0.85278
   1172.    8.532  1.20E-06  1.65E-04  3.81E-06  5.23E-04  0.00E+00  0.00E+00  5.00E-06  6.87E-04  7.68E-03  0.71596
   1174.    8.518  2.44E-06  3.37E-04  1.93E-06  2.66E-04  0.00E+00  0.00E+00  4.37E-06  6.02E-04  7.69E-03  0.36409
   1176.    8.503  1.88E-06  2.60E-04  2.68E-06  3.70E-04  0.00E+00  0.00E+00  4.56E-06  6.30E-04  7.69E-03  0.50989
   1178.    8.489  8.43E-07  1.17E-04  4.21E-06  5.84E-04  0.00E+00  0.00E+00  5.05E-06  7.01E-04  7.70E-03  0.80449
   1180.    8.475  7.47E-07  1.04E-04  4.29E-06  5.97E-04  0.00E+00  0.00E+00  5.03E-06  7.01E-04  7.71E-03  0.82337
   1182.    8.460  6.76E-07  9.44E-05  4.35E-06  6.08E-04  0.00E+00  0.00E+00  5.03E-06  7.03E-04  7.72E-03  0.84029
   1184.    8.446  8.11E-07  1.14E-04  4.18E-06  5.86E-04  0.00E+00  0.00E+00  4.99E-06  7.00E-04  7.73E-03  0.81111
   1186.    8.432  1.80E-06  2.53E-04  2.71E-06  3.81E-04  0.00E+00  0.00E+00  4.51E-06  6.34E-04  7.74E-03  0.52683
   1188.    8.418  2.15E-06  3.03E-04  2.23E-06  3.15E-04  0.00E+00  0.00E+00  4.38E-06  6.18E-04  7.75E-03  0.43786
   1190.    8.403  1.15E-06  1.62E-04  3.67E-06  5.20E-04  0.00E+00  0.00E+00  4.82E-06  6.82E-04  7.76E-03  0.72300
   1192.    8.389  7.80E-07  1.11E-04  4.09E-06  5.82E-04  0.00E+00  0.00E+00  4.87E-06  6.92E-04  7.77E-03  0.80994
   1194.    8.375  7.21E-07  1.03E-04  4.15E-06  5.92E-04  0.00E+00  0.00E+00  4.87E-06  6.95E-04  7.78E-03  0.82558
   1196.    8.361  1.05E-06  1.50E-04  3.65E-06  5.22E-04  0.00E+00  0.00E+00  4.70E-06  6.72E-04  7.79E-03  0.72920
   1198.    8.347  1.87E-06  2.68E-04  2.44E-06  3.50E-04  0.00E+00  0.00E+00  4.31E-06  6.18E-04  7.80E-03  0.48975
   1200.    8.333  1.31E-06  1.89E-04  3.27E-06  4.70E-04  0.00E+00  0.00E+00  4.58E-06  6.59E-04  7.81E-03  0.65988
  iv         1205
1                                             RADIANCE(WATTS/CM2-STER-XXX)
0  FREQ   WAVLEN    PATH THERMAL      SURFACE EMISSION    SURFACE REFLECTED     TOTAL RADIANCE   INTEGRAL    TOTAL
  (CM-1) (MICRN)    (CM-1)   (MICRN)    (CM-1)   (MICRN)    (CM-1)   (MICRN)    (CM-1)   (MICRN)    (CM-1)   TRANS

   1202.    8.319  5.70E-07  8.23E-05  4.23E-06  6.11E-04  0.00E+00  0.00E+00  4.80E-06  6.93E-04  7.82E-03  0.85818
   1204.    8.306  6.00E-07  8.69E-05  4.17E-06  6.04E-04  0.00E+00  0.00E+00  4.77E-06  6.91E-04  7.83E-03  0.84943
   1206.    8.292  8.72E-07  1.27E-04  3.81E-06  5.54E-04  0.00E+00  0.00E+00  4.68E-06  6.81E-04  7.84E-03  0.78031
   1208.    8.278  9.04E-07  1.32E-04  3.75E-06  5.48E-04  0.00E+00  0.00E+00  4.66E-06  6.80E-04  7.85E-03  0.77316
   1210.    8.264  1.63E-06  2.39E-04  2.56E-06  3.74E-04  0.00E+00  0.00E+00  4.19E-06  6.14E-04  7.86E-03  0.52877
   1212.    8.251  2.53E-06  3.72E-04  1.14E-06  1.68E-04  0.00E+00  0.00E+00  3.67E-06  5.40E-04  7.86E-03  0.23767
   1214.    8.237  1.91E-06  2.82E-04  2.26E-06  3.34E-04  0.00E+00  0.00E+00  4.18E-06  6.16E-04  7.87E-03  0.47431
   1216.    8.224  1.25E-06  1.85E-04  3.19E-06  4.72E-04  0.00E+00  0.00E+00  4.44E-06  6.56E-04  7.88E-03  0.67042
   1218.    8.210  1.78E-06  2.64E-04  2.32E-06  3.44E-04  0.00E+00  0.00E+00  4.10E-06  6.08E-04  7.89E-03  0.49007
   1220.    8.197  1.92E-06  2.85E-04  2.04E-06  3.04E-04  0.00E+00  0.00E+00  3.96E-06  5.90E-04  7.90E-03  0.43456
   1222.    8.183  1.59E-06  2.38E-04  2.57E-06  3.83E-04  0.00E+00  0.00E+00  4.16E-06  6.22E-04  7.90E-03  0.54825
   1224.    8.170  2.09E-06  3.14E-04  1.67E-06  2.50E-04  0.00E+00  0.00E+00  3.76E-06  5.63E-04  7.91E-03  0.35691
   1226.    8.157  2.23E-06  3.35E-04  1.41E-06  2.12E-04  0.00E+00  0.00E+00  3.64E-06  5.47E-04  7.92E-03  0.30442
   1228.    8.143  1.36E-06  2.06E-04  2.75E-06  4.15E-04  0.00E+00  0.00E+00  4.12E-06  6.21E-04  7.93E-03  0.59698
   1230.    8.130  9.18E-07  1.39E-04  3.27E-06  4.94E-04  0.00E+00  0.00E+00  4.19E-06  6.33E-04  7.94E-03  0.71248
   1232.    8.117  6.42E-07  9.74E-05  3.71E-06  5.63E-04  0.00E+00  0.00E+00  4.35E-06  6.61E-04  7.94E-03  0.81307
   1234.    8.104  7.01E-07  1.07E-04  3.59E-06  5.46E-04  0.00E+00  0.00E+00  4.29E-06  6.53E-04  7.95E-03  0.79015
   1236.    8.091  1.19E-06  1.82E-04  2.72E-06  4.16E-04  0.00E+00  0.00E+00  3.91E-06  5.98E-04  7.96E-03  0.60182
   1238.    8.078  1.59E-06  2.44E-04  2.17E-06  3.33E-04  0.00E+00  0.00E+00  3.76E-06  5.77E-04  7.97E-03  0.48296
   1240.    8.065  1.63E-06  2.51E-04  2.19E-06  3.36E-04  0.00E+00  0.00E+00  3.82E-06  5.87E-04  7.98E-03  0.48882
   1242.    8.052  1.82E-06  2.81E-04  1.71E-06  2.63E-04  0.00E+00  0.00E+00  3.53E-06  5.44E-04  7.98E-03  0.38345
   1244.    8.039  2.31E-06  3.58E-04  7.16E-07  1.11E-04  0.00E+00  0.00E+00  3.03E-06  4.69E-04  7.99E-03  0.16164
   1246.    8.026  1.87E-06  2.91E-04  1.40E-06  2.18E-04  0.00E+00  0.00E+00  3.28E-06  5.08E-04  8.00E-03  0.31933
   1248.    8.013  1.48E-06  2.30E-04  2.01E-06  3.13E-04  0.00E+00  0.00E+00  3.49E-06  5.43E-04  8.00E-03  0.45873
   1250.    8.000  1.50E-06  2.34E-04  2.11E-06  3.29E-04  0.00E+00  0.00E+00  3.60E-06  5.63E-04  8.01E-03  0.48372
   1252.    7.987  1.74E-06  2.73E-04  1.74E-06  2.73E-04  0.00E+00  0.00E+00  3.49E-06  5.47E-04  8.02E-03  0.40223
   1254.    7.974  1.71E-06  2.69E-04  1.58E-06  2.48E-04  0.00E+00  0.00E+00  3.29E-06  5.17E-04  8.02E-03  0.36625
   1256.    7.962  1.69E-06  2.66E-04  1.83E-06  2.89E-04  0.00E+00  0.00E+00  3.52E-06  5.56E-04  8.03E-03  0.42776
   1258.    7.949  2.11E-06  3.33E-04  1.12E-06  1.77E-04  0.00E+00  0.00E+00  3.22E-06  5.10E-04  8.04E-03  0.26126
   1260.    7.937  2.13E-06  3.39E-04  2.74E-07  4.36E-05  0.00E+00  0.00E+00  2.41E-06  3.82E-04  8.04E-03  0.06454
   1262.    7.924  2.07E-06  3.29E-04  5.54E-07  8.82E-05  0.00E+00  0.00E+00  2.62E-06  4.17E-04  8.05E-03  0.13143
   1264.    7.911  2.21E-06  3.54E-04  6.45E-07  1.03E-04  0.00E+00  0.00E+00  2.86E-06  4.57E-04  8.05E-03  0.15352
   1266.    7.899  2.33E-06  3.73E-04  2.04E-07  3.26E-05  0.00E+00  0.00E+00  2.53E-06  4.05E-04  8.06E-03  0.04861
   1268.    7.886  2.13E-06  3.43E-04  3.60E-08  5.79E-06  0.00E+00  0.00E+00  2.17E-06  3.49E-04  8.06E-03  0.00864
   1270.    7.874  1.99E-06  3.21E-04  7.61E-09  1.23E-06  0.00E+00  0.00E+00  2.00E-06  3.23E-04  8.07E-03  0.00184
   1272.    7.862  2.06E-06  3.34E-04  1.58E-07  2.56E-05  0.00E+00  0.00E+00  2.22E-06  3.59E-04  8.07E-03  0.03872
   1274.    7.849  2.05E-06  3.33E-04  8.43E-07  1.37E-04  0.00E+00  0.00E+00  2.89E-06  4.69E-04  8.08E-03  0.20672
   1276.    7.837  1.56E-06  2.54E-04  1.52E-06  2.48E-04  0.00E+00  0.00E+00  3.08E-06  5.01E-04  8.08E-03  0.37405
   1278.    7.825  1.49E-06  2.44E-04  1.80E-06  2.94E-04  0.00E+00  0.00E+00  3.29E-06  5.38E-04  8.09E-03  0.44476
   1280.    7.813  2.01E-06  3.30E-04  1.01E-06  1.66E-04  0.00E+00  0.00E+00  3.03E-06  4.96E-04  8.09E-03  0.25165
   1282.    7.800  2.01E-06  3.30E-04  5.41E-07  8.89E-05  0.00E+00  0.00E+00  2.55E-06  4.19E-04  8.10E-03  0.13523
   1284.    7.788  2.07E-06  3.41E-04  5.68E-07  9.37E-05  0.00E+00  0.00E+00  2.64E-06  4.35E-04  8.11E-03  0.14273
   1286.    7.776  2.18E-06  3.61E-04  3.98E-07  6.58E-05  0.00E+00  0.00E+00  2.58E-06  4.27E-04  8.11E-03  0.10036
   1288.    7.764  1.93E-06  3.19E-04  1.11E-07  1.84E-05  0.00E+00  0.00E+00  2.04E-06  3.38E-04  8.11E-03  0.02822
   1290.    7.752  2.17E-06  3.61E-04  3.10E-07  5.17E-05  0.00E+00  0.00E+00  2.48E-06  4.13E-04  8.12E-03  0.07946
   1292.    7.740  2.10E-06  3.51E-04  6.63E-07  1.11E-04  0.00E+00  0.00E+00  2.77E-06  4.62E-04  8.12E-03  0.17021
   1294.    7.728  1.87E-06  3.13E-04  6.36E-07  1.07E-04  0.00E+00  0.00E+00  2.51E-06  4.20E-04  8.13E-03  0.16410
   1296.    7.716  1.89E-06  3.17E-04  2.81E-07  4.72E-05  0.00E+00  0.00E+00  2.17E-06  3.64E-04  8.13E-03  0.07274
   1298.    7.704  1.70E-06  2.86E-04  5.75E-07  9.70E-05  0.00E+00  0.00E+00  2.27E-06  3.83E-04  8.14E-03  0.15045
   1300.    7.692  1.54E-06  2.60E-04  7.89E-07  1.33E-04  0.00E+00  0.00E+00  2.33E-06  3.93E-04  8.14E-03  0.20671
  iv         1305
1                                             RADIANCE(WATTS/CM2-STER-XXX)
0  FREQ   WAVLEN    PATH THERMAL      SURFACE EMISSION    SURFACE REFLECTED     TOTAL RADIANCE   INTEGRAL    TOTAL
  (CM-1) (MICRN)    (CM-1)   (MICRN)    (CM-1)   (MICRN)    (CM-1)   (MICRN)    (CM-1)   (MICRN)    (CM-1)   TRANS

   1302.    7.680  1.42E-06  2.41E-04  3.96E-07  6.71E-05  0.00E+00  0.00E+00  1.82E-06  3.09E-04  8.15E-03  0.10421
   1304.    7.669  1.17E-06  1.99E-04  1.15E-07  1.95E-05  0.00E+00  0.00E+00  1.29E-06  2.19E-04  8.15E-03  0.03037
   1306.    7.657  1.33E-06  2.27E-04  4.88E-08  8.32E-06  0.00E+00  0.00E+00  1.38E-06  2.35E-04  8.15E-03  0.01302
   1308.    7.645  1.98E-06  3.39E-04  7.18E-08  1.23E-05  0.00E+00  0.00E+00  2.05E-06  3.51E-04  8.16E-03  0.01926
   1310.    7.634  2.21E-06  3.79E-04  1.21E-07  2.08E-05  0.00E+00  0.00E+00  2.33E-06  3.99E-04  8.16E-03  0.03266
   1312.    7.622  1.83E-06  3.15E-04  5.38E-08  9.27E-06  0.00E+00  0.00E+00  1.89E-06  3.25E-04  8.16E-03  0.01453
   1314.    7.610  1.66E-06  2.86E-04  6.81E-11  1.18E-08  0.00E+00  0.00E+00  1.66E-06  2.86E-04  8.17E-03  0.00002
   1316.    7.599  1.67E-06  2.89E-04  6.61E-11  1.14E-08  0.00E+00  0.00E+00  1.67E-06  2.89E-04  8.17E-03  0.00002
   1318.    7.587  1.48E-06  2.58E-04  2.62E-11  4.55E-09  0.00E+00  0.00E+00  1.48E-06  2.58E-04  8.17E-03  0.00001
   1320.    7.576  1.53E-06  2.66E-04  3.90E-09  6.80E-07  0.00E+00  0.00E+00  1.53E-06  2.67E-04  8.18E-03  0.00109
   1322.    7.564  1.82E-06  3.18E-04  2.70E-08  4.72E-06  0.00E+00  0.00E+00  1.85E-06  3.22E-04  8.18E-03  0.00754
   1324.    7.553  2.14E-06  3.75E-04  1.55E-07  2.72E-05  0.00E+00  0.00E+00  2.30E-06  4.03E-04  8.19E-03  0.04363
   1326.    7.541  2.02E-06  3.55E-04  1.97E-07  3.46E-05  0.00E+00  0.00E+00  2.22E-06  3.90E-04  8.19E-03  0.05535
   1328.    7.530  1.94E-06  3.41E-04  7.81E-08  1.38E-05  0.00E+00  0.00E+00  2.01E-06  3.55E-04  8.19E-03  0.02208
   1330.    7.519  2.03E-06  3.59E-04  1.47E-07  2.60E-05  0.00E+00  0.00E+00  2.18E-06  3.85E-04  8.20E-03  0.04200
   1332.    7.508  1.76E-06  3.13E-04  1.42E-07  2.51E-05  0.00E+00  0.00E+00  1.91E-06  3.38E-04  8.20E-03  0.04048
   1334.    7.496  1.86E-06  3.30E-04  3.39E-08  6.03E-06  0.00E+00  0.00E+00  1.89E-06  3.36E-04  8.21E-03  0.00975
   1336.    7.485  1.63E-06  2.90E-04  1.07E-08  1.91E-06  0.00E+00  0.00E+00  1.64E-06  2.92E-04  8.21E-03  0.00308
   1338.    7.474  1.10E-06  1.97E-04  2.82E-15  5.04E-13  0.00E+00  0.00E+00  1.10E-06  1.97E-04  8.21E-03  0.00000
   1340.    7.463  1.07E-06  1.93E-04  3.93E-12  7.06E-10  0.00E+00  0.00E+00  1.07E-06  1.93E-04  8.21E-03  0.00000
   1342.    7.452  1.32E-06  2.37E-04  3.58E-09  6.44E-07  0.00E+00  0.00E+00  1.32E-06  2.38E-04  8.22E-03  0.00106
   1344.    7.440  1.78E-06  3.22E-04  3.37E-08  6.09E-06  0.00E+00  0.00E+00  1.82E-06  3.28E-04  8.22E-03  0.01001
   1346.    7.429  1.79E-06  3.25E-04  4.21E-08  7.63E-06  0.00E+00  0.00E+00  1.83E-06  3.32E-04  8.22E-03  0.01251
   1348.    7.418  1.47E-06  2.68E-04  1.12E-08  2.03E-06  0.00E+00  0.00E+00  1.48E-06  2.70E-04  8.23E-03  0.00333
   1350.    7.407  1.53E-06  2.78E-04  8.10E-09  1.48E-06  0.00E+00  0.00E+00  1.53E-06  2.80E-04  8.23E-03  0.00244
   1352.    7.396  1.65E-06  3.01E-04  1.50E-08  2.74E-06  0.00E+00  0.00E+00  1.66E-06  3.04E-04  8.23E-03  0.00453
   1354.    7.386  1.50E-06  2.74E-04  5.92E-09  1.08E-06  0.00E+00  0.00E+00  1.50E-06  2.75E-04  8.24E-03  0.00179
   1356.    7.375  1.47E-06  2.69E-04  1.67E-09  3.07E-07  0.00E+00  0.00E+00  1.47E-06  2.70E-04  8.24E-03  0.00051
   1358.    7.364  1.58E-06  2.91E-04  1.70E-09  3.14E-07  0.00E+00  0.00E+00  1.58E-06  2.91E-04  8.24E-03  0.00052
   1360.    7.353  1.37E-06  2.53E-04  1.20E-10  2.22E-08  0.00E+00  0.00E+00  1.37E-06  2.53E-04  8.25E-03  0.00004
   1362.    7.342  1.04E-06  1.93E-04  1.58E-13  2.93E-11  0.00E+00  0.00E+00  1.04E-06  1.93E-04  8.25E-03  0.00000
   1364.    7.331  1.18E-06  2.19E-04  1.88E-11  3.49E-09  0.00E+00  0.00E+00  1.18E-06  2.19E-04  8.25E-03  0.00001
   1366.    7.321  1.54E-06  2.87E-04  1.17E-10  2.18E-08  0.00E+00  0.00E+00  1.54E-06  2.87E-04  8.25E-03  0.00004
   1368.    7.310  1.36E-06  2.54E-04  8.01E-11  1.50E-08  0.00E+00  0.00E+00  1.36E-06  2.54E-04  8.26E-03  0.00003
   1370.    7.299  1.31E-06  2.46E-04  1.03E-12  1.94E-10  0.00E+00  0.00E+00  1.31E-06  2.46E-04  8.26E-03  0.00000
   1372.    7.289  1.23E-06  2.32E-04  5.48E-13  1.03E-10  0.00E+00  0.00E+00  1.23E-06  2.32E-04  8.26E-03  0.00000
   1374.    7.278  9.14E-07  1.73E-04  4.37E-17  8.24E-15  0.00E+00  0.00E+00  9.14E-07  1.73E-04  8.26E-03  0.00000
   1376.    7.267  1.06E-06  2.01E-04  1.77E-14  3.35E-12  0.00E+00  0.00E+00  1.06E-06  2.01E-04  8.26E-03  0.00000
   1378.    7.257  1.27E-06  2.40E-04  1.79E-13  3.40E-11  0.00E+00  0.00E+00  1.27E-06  2.40E-04  8.27E-03  0.00000
   1380.    7.246  1.38E-06  2.63E-04  1.19E-10  2.26E-08  0.00E+00  0.00E+00  1.38E-06  2.63E-04  8.27E-03  0.00004
   1382.    7.236  1.53E-06  2.92E-04  1.79E-10  3.41E-08  0.00E+00  0.00E+00  1.53E-06  2.92E-04  8.27E-03  0.00006
   1384.    7.225  1.46E-06  2.79E-04  4.90E-11  9.38E-09  0.00E+00  0.00E+00  1.46E-06  2.79E-04  8.28E-03  0.00002
   1386.    7.215  1.09E-06  2.09E-04  3.12E-12  6.00E-10  0.00E+00  0.00E+00  1.09E-06  2.09E-04  8.28E-03  0.00000
   1388.    7.205  9.33E-07  1.80E-04  5.82E-17  1.12E-14  0.00E+00  0.00E+00  9.33E-07  1.80E-04  8.28E-03  0.00000
   1390.    7.194  1.17E-06  2.26E-04  1.92E-16  3.70E-14  0.00E+00  0.00E+00  1.17E-06  2.26E-04  8.28E-03  0.00000
   1392.    7.184  1.13E-06  2.20E-04  1.03E-16  2.00E-14  0.00E+00  0.00E+00  1.13E-06  2.20E-04  8.28E-03  0.00000
   1394.    7.174  8.38E-07  1.63E-04  1.11E-18  2.15E-16  0.00E+00  0.00E+00  8.38E-07  1.63E-04  8.29E-03  0.00000
   1396.    7.163  8.20E-07  1.60E-04  5.23E-20  1.02E-17  0.00E+00  0.00E+00  8.20E-07  1.60E-04  8.29E-03  0.00000
   1398.    7.153  8.28E-07  1.62E-04  5.56E-16  1.09E-13  0.00E+00  0.00E+00  8.28E-07  1.62E-04  8.29E-03  0.00000
   1400.    7.143  8.96E-07  1.76E-04  6.24E-16  1.22E-13  0.00E+00  0.00E+00  8.96E-07  1.76E-04  8.29E-03  0.00000
  iv         1405
1                                             RADIANCE(WATTS/CM2-STER-XXX)
0  FREQ   WAVLEN    PATH THERMAL      SURFACE EMISSION    SURFACE REFLECTED     TOTAL RADIANCE   INTEGRAL    TOTAL
  (CM-1) (MICRN)    (CM-1)   (MICRN)    (CM-1)   (MICRN)    (CM-1)   (MICRN)    (CM-1)   (MICRN)    (CM-1)   TRANS

   1402.    7.133  1.14E-06  2.24E-04  2.05E-16  4.03E-14  0.00E+00  0.00E+00  1.14E-06  2.24E-04  8.29E-03  0.00000
   1404.    7.123  9.83E-07  1.94E-04  1.09E-13  2.15E-11  0.00E+00  0.00E+00  9.83E-07  1.94E-04  8.30E-03  0.00000
   1406.    7.112  1.09E-06  2.16E-04  4.83E-13  9.55E-11  0.00E+00  0.00E+00  1.09E-06  2.16E-04  8.30E-03  0.00000
   1408.    7.102  1.31E-06  2.59E-04  1.10E-12  2.19E-10  0.00E+00  0.00E+00  1.31E-06  2.59E-04  8.30E-03  0.00000
   1410.    7.092  1.18E-06  2.34E-04  3.86E-13  7.67E-11  0.00E+00  0.00E+00  1.18E-06  2.34E-04  8.30E-03  0.00000
   1412.    7.082  1.12E-06  2.23E-04  6.72E-14  1.34E-11  0.00E+00  0.00E+00  1.12E-06  2.23E-04  8.30E-03  0.00000
   1414.    7.072  1.15E-06  2.31E-04  6.30E-14  1.26E-11  0.00E+00  0.00E+00  1.15E-06  2.31E-04  8.31E-03  0.00000
   1416.    7.062  9.17E-07  1.84E-04  1.15E-15  2.30E-13  0.00E+00  0.00E+00  9.17E-07  1.84E-04  8.31E-03  0.00000
   1418.    7.052  6.73E-07  1.35E-04  1.90E-24  3.81E-22  0.00E+00  0.00E+00  6.73E-07  1.35E-04  8.31E-03  0.00000
   1420.    7.042  6.58E-07  1.33E-04  9.99E-31  2.01E-28  0.00E+00  0.00E+00  6.58E-07  1.33E-04  8.31E-03  0.00000
   1422.    7.032  8.10E-07  1.64E-04  1.88E-21  3.80E-19  0.00E+00  0.00E+00  8.10E-07  1.64E-04  8.31E-03  0.00000
   1424.    7.022  8.02E-07  1.63E-04  4.85E-20  9.84E-18  0.00E+00  0.00E+00  8.02E-07  1.63E-04  8.31E-03  0.00000
   1426.    7.013  9.74E-07  1.98E-04  6.85E-19  1.39E-16  0.00E+00  0.00E+00  9.74E-07  1.98E-04  8.32E-03  0.00000
   1428.    7.003  8.99E-07  1.83E-04  1.34E-17  2.73E-15  0.00E+00  0.00E+00  8.99E-07  1.83E-04  8.32E-03  0.00000
   1430.    6.993  7.56E-07  1.55E-04  3.84E-17  7.85E-15  0.00E+00  0.00E+00  7.56E-07  1.55E-04  8.32E-03  0.00000
   1432.    6.983  8.39E-07  1.72E-04  1.28E-17  2.62E-15  0.00E+00  0.00E+00  8.39E-07  1.72E-04  8.32E-03  0.00000
   1434.    6.974  7.87E-07  1.62E-04  1.52E-23  3.13E-21  0.00E+00  0.00E+00  7.87E-07  1.62E-04  8.32E-03  0.00000
   1436.    6.964  6.10E-07  1.26E-04  2.29E-32  4.73E-30  0.00E+00  0.00E+00  6.10E-07  1.26E-04  8.32E-03  0.00000
   1438.    6.954  7.07E-07  1.46E-04  8.69E-22  1.80E-19  0.00E+00  0.00E+00  7.07E-07  1.46E-04  8.33E-03  0.00000
   1440.    6.944  9.69E-07  2.01E-04  1.86E-17  3.86E-15  0.00E+00  0.00E+00  9.69E-07  2.01E-04  8.33E-03  0.00000
   1442.    6.935  1.06E-06  2.21E-04  1.84E-16  3.83E-14  0.00E+00  0.00E+00  1.06E-06  2.21E-04  8.33E-03  0.00000
   1444.    6.925  1.03E-06  2.14E-04  2.36E-16  4.92E-14  0.00E+00  0.00E+00  1.03E-06  2.14E-04  8.33E-03  0.00000
   1446.    6.916  8.08E-07  1.69E-04  4.44E-17  9.28E-15  0.00E+00  0.00E+00  8.08E-07  1.69E-04  8.33E-03  0.00000
   1448.    6.906  6.97E-07  1.46E-04  1.01E-18  2.12E-16  0.00E+00  0.00E+00  6.97E-07  1.46E-04  8.33E-03  0.00000
   1450.    6.897  8.15E-07  1.71E-04  3.38E-19  7.10E-17  0.00E+00  0.00E+00  8.15E-07  1.71E-04  8.34E-03  0.00000
   1452.    6.887  7.64E-07  1.61E-04  1.15E-24  2.44E-22  0.00E+00  0.00E+00  7.64E-07  1.61E-04  8.34E-03  0.00000
   1454.    6.878  6.49E-07  1.37E-04  1.41E-28  2.99E-26  0.00E+00  0.00E+00  6.49E-07  1.37E-04  8.34E-03  0.00000
   1456.    6.868  4.78E-07  1.01E-04  0.00E+00  0.00E+00  0.00E+00  0.00E+00  4.78E-07  1.01E-04  8.34E-03  0.00000
   1458.    6.859  4.47E-07  9.50E-05  0.00E+00  0.00E+00  0.00E+00  0.00E+00  4.47E-07  9.50E-05  8.34E-03  0.00000
   1460.    6.849  6.07E-07  1.29E-04  2.09E-35  4.45E-33  0.00E+00  0.00E+00  6.07E-07  1.29E-04  8.34E-03  0.00000
   1462.    6.840  7.10E-07  1.52E-04  6.26E-35  1.34E-32  0.00E+00  0.00E+00  7.10E-07  1.52E-04  8.34E-03  0.00000
   1464.    6.831  5.69E-07  1.22E-04  6.19E-23  1.33E-20  0.00E+00  0.00E+00  5.69E-07  1.22E-04  8.35E-03  0.00000
   1466.    6.821  5.98E-07  1.28E-04  6.19E-23  1.33E-20  0.00E+00  0.00E+00  5.98E-07  1.28E-04  8.35E-03  0.00000
   1468.    6.812  7.32E-07  1.58E-04  1.21E-30  2.60E-28  0.00E+00  0.00E+00  7.32E-07  1.58E-04  8.35E-03  0.00000
   1470.    6.803  6.54E-07  1.41E-04  5.67E-31  1.23E-28  0.00E+00  0.00E+00  6.54E-07  1.41E-04  8.35E-03  0.00000
   1472.    6.793  4.70E-07  1.02E-04  1.06E-42  2.30E-40  0.00E+00  0.00E+00  4.70E-07  1.02E-04  8.35E-03  0.00000
   1474.    6.784  4.53E-07  9.84E-05  3.57E-40  7.75E-38  0.00E+00  0.00E+00  4.53E-07  9.84E-05  8.35E-03  0.00000
   1476.    6.775  5.26E-07  1.15E-04  2.33E-34  5.08E-32  0.00E+00  0.00E+00  5.26E-07  1.15E-04  8.35E-03  0.00000
   1478.    6.766  6.92E-07  1.51E-04  1.23E-26  2.68E-24  0.00E+00  0.00E+00  6.92E-07  1.51E-04  8.35E-03  0.00000
   1480.    6.757  7.19E-07  1.57E-04  7.62E-26  1.67E-23  0.00E+00  0.00E+00  7.19E-07  1.57E-04  8.35E-03  0.00000
   1482.    6.748  6.88E-07  1.51E-04  1.38E-25  3.04E-23  0.00E+00  0.00E+00  6.88E-07  1.51E-04  8.36E-03  0.00000
   1484.    6.739  7.25E-07  1.60E-04  8.09E-26  1.78E-23  0.00E+00  0.00E+00  7.25E-07  1.60E-04  8.36E-03  0.00000
   1486.    6.729  5.74E-07  1.27E-04  3.31E-27  7.30E-25  0.00E+00  0.00E+00  5.74E-07  1.27E-04  8.36E-03  0.00000
   1488.    6.720  4.54E-07  1.01E-04  5.79E-36  1.28E-33  0.00E+00  0.00E+00  4.54E-07  1.01E-04  8.36E-03  0.00000
   1490.    6.711  4.40E-07  9.76E-05  0.00E+00  0.00E+00  0.00E+00  0.00E+00  4.40E-07  9.76E-05  8.36E-03  0.00000
   1492.    6.702  5.48E-07  1.22E-04  7.47E-42  1.66E-39  0.00E+00  0.00E+00  5.48E-07  1.22E-04  8.36E-03  0.00000
   1494.    6.693  5.78E-07  1.29E-04  1.72E-34  3.83E-32  0.00E+00  0.00E+00  5.78E-07  1.29E-04  8.36E-03  0.00000
   1496.    6.684  4.43E-07  9.91E-05  5.15E-34  1.15E-31  0.00E+00  0.00E+00  4.43E-07  9.91E-05  8.36E-03  0.00000
   1498.    6.676  4.05E-07  9.10E-05  1.72E-34  3.85E-32  0.00E+00  0.00E+00  4.05E-07  9.10E-05  8.36E-03  0.00000
   1500.    6.667  4.66E-07  1.05E-04  7.01E-45  1.58E-42  0.00E+00  0.00E+00  4.66E-07  1.05E-04  8.37E-03  0.00000
  iv         1505
1                                             RADIANCE(WATTS/CM2-STER-XXX)
0  FREQ   WAVLEN    PATH THERMAL      SURFACE EMISSION    SURFACE REFLECTED     TOTAL RADIANCE   INTEGRAL    TOTAL
  (CM-1) (MICRN)    (CM-1)   (MICRN)    (CM-1)   (MICRN)    (CM-1)   (MICRN)    (CM-1)   (MICRN)    (CM-1)   TRANS

   1502.    6.658  5.16E-07  1.16E-04  0.00E+00  0.00E+00  0.00E+00  0.00E+00  5.16E-07  1.16E-04  8.37E-03  0.00000
   1504.    6.649  4.54E-07  1.03E-04  0.00E+00  0.00E+00  0.00E+00  0.00E+00  4.54E-07  1.03E-04  8.37E-03  0.00000
   1506.    6.640  3.42E-07  7.76E-05  0.00E+00  0.00E+00  0.00E+00  0.00E+00  3.42E-07  7.76E-05  8.37E-03  0.00000
   1508.    6.631  3.38E-07  7.68E-05  0.00E+00  0.00E+00  0.00E+00  0.00E+00  3.38E-07  7.68E-05  8.37E-03  0.00000
   1510.    6.623  3.89E-07  8.86E-05  0.00E+00  0.00E+00  0.00E+00  0.00E+00  3.89E-07  8.86E-05  8.37E-03  0.00000
   1512.    6.614  4.36E-07  9.98E-05  0.00E+00  0.00E+00  0.00E+00  0.00E+00  4.36E-07  9.98E-05  8.37E-03  0.00000
   1514.    6.605  4.57E-07  1.05E-04  0.00E+00  0.00E+00  0.00E+00  0.00E+00  4.57E-07  1.05E-04  8.37E-03  0.00000
   1516.    6.596  3.88E-07  8.93E-05  0.00E+00  0.00E+00  0.00E+00  0.00E+00  3.88E-07  8.93E-05  8.37E-03  0.00000
   1518.    6.588  3.74E-07  8.63E-05  0.00E+00  0.00E+00  0.00E+00  0.00E+00  3.74E-07  8.63E-05  8.37E-03  0.00000
   1520.    6.579  3.55E-07  8.20E-05  0.00E+00  0.00E+00  0.00E+00  0.00E+00  3.55E-07  8.20E-05  8.37E-03  0.00000
   1522.    6.570  3.24E-07  7.50E-05  0.00E+00  0.00E+00  0.00E+00  0.00E+00  3.24E-07  7.50E-05  8.37E-03  0.00000
   1524.    6.562  3.54E-07  8.21E-05  0.00E+00  0.00E+00  0.00E+00  0.00E+00  3.54E-07  8.21E-05  8.37E-03  0.00000
   1526.    6.553  3.79E-07  8.83E-05  0.00E+00  0.00E+00  0.00E+00  0.00E+00  3.79E-07  8.83E-05  8.38E-03  0.00000
   1528.    6.545  4.10E-07  9.58E-05  0.00E+00  0.00E+00  0.00E+00  0.00E+00  4.10E-07  9.58E-05  8.38E-03  0.00000
   1530.    6.536  4.53E-07  1.06E-04  0.00E+00  0.00E+00  0.00E+00  0.00E+00  4.53E-07  1.06E-04  8.38E-03  0.00000
   1532.    6.527  3.94E-07  9.26E-05  0.00E+00  0.00E+00  0.00E+00  0.00E+00  3.94E-07  9.26E-05  8.38E-03  0.00000
   1534.    6.519  3.48E-07  8.19E-05  0.00E+00  0.00E+00  0.00E+00  0.00E+00  3.48E-07  8.19E-05  8.38E-03  0.00000
   1536.    6.510  3.96E-07  9.35E-05  0.00E+00  0.00E+00  0.00E+00  0.00E+00  3.96E-07  9.35E-05  8.38E-03  0.00000
   1538.    6.502  3.33E-07  7.88E-05  0.00E+00  0.00E+00  0.00E+00  0.00E+00  3.33E-07  7.88E-05  8.38E-03  0.00000
   1540.    6.494  2.74E-07  6.51E-05  0.00E+00  0.00E+00  0.00E+00  0.00E+00  2.74E-07  6.51E-05  8.38E-03  0.00000
   1542.    6.485  2.87E-07  6.83E-05  0.00E+00  0.00E+00  0.00E+00  0.00E+00  2.87E-07  6.83E-05  8.38E-03  0.00000
   1544.    6.477  3.23E-07  7.71E-05  0.00E+00  0.00E+00  0.00E+00  0.00E+00  3.23E-07  7.71E-05  8.38E-03  0.00000
   1546.    6.468  3.83E-07  9.15E-05  0.00E+00  0.00E+00  0.00E+00  0.00E+00  3.83E-07  9.15E-05  8.38E-03  0.00000
   1548.    6.460  4.36E-07  1.05E-04  0.00E+00  0.00E+00  0.00E+00  0.00E+00  4.36E-07  1.05E-04  8.38E-03  0.00000
   1550.    6.452  3.98E-07  9.57E-05  0.00E+00  0.00E+00  0.00E+00  0.00E+00  3.98E-07  9.57E-05  8.38E-03  0.00000
   1552.    6.443  3.89E-07  9.37E-05  0.00E+00  0.00E+00  0.00E+00  0.00E+00  3.89E-07  9.37E-05  8.39E-03  0.00000
   1554.    6.435  3.36E-07  8.12E-05  0.00E+00  0.00E+00  0.00E+00  0.00E+00  3.36E-07  8.12E-05  8.39E-03  0.00000
   1556.    6.427  3.03E-07  7.35E-05  0.00E+00  0.00E+00  0.00E+00  0.00E+00  3.03E-07  7.35E-05  8.39E-03  0.00000
   1558.    6.418  2.61E-07  6.34E-05  0.00E+00  0.00E+00  0.00E+00  0.00E+00  2.61E-07  6.34E-05  8.39E-03  0.00000
   1560.    6.410  2.64E-07  6.43E-05  0.00E+00  0.00E+00  0.00E+00  0.00E+00  2.64E-07  6.43E-05  8.39E-03  0.00000
   1562.    6.402  3.40E-07  8.29E-05  0.00E+00  0.00E+00  0.00E+00  0.00E+00  3.40E-07  8.29E-05  8.39E-03  0.00000
   1564.    6.394  3.57E-07  8.74E-05  0.00E+00  0.00E+00  0.00E+00  0.00E+00  3.57E-07  8.74E-05  8.39E-03  0.00000
   1566.    6.386  3.77E-07  9.26E-05  0.00E+00  0.00E+00  0.00E+00  0.00E+00  3.77E-07  9.26E-05  8.39E-03  0.00000
   1568.    6.378  3.51E-07  8.62E-05  0.00E+00  0.00E+00  0.00E+00  0.00E+00  3.51E-07  8.62E-05  8.39E-03  0.00000
   1570.    6.369  3.11E-07  7.67E-05  0.00E+00  0.00E+00  0.00E+00  0.00E+00  3.11E-07  7.67E-05  8.39E-03  0.00000
   1572.    6.361  3.85E-07  9.52E-05  0.00E+00  0.00E+00  0.00E+00  0.00E+00  3.85E-07  9.52E-05  8.39E-03  0.00000
   1574.    6.353  3.60E-07  8.91E-05  2.84E-27  7.04E-25  0.00E+00  0.00E+00  3.60E-07  8.91E-05  8.39E-03  0.00000
   1576.    6.345  2.75E-07  6.82E-05  8.52E-27  2.12E-24  0.00E+00  0.00E+00  2.75E-07  6.82E-05  8.39E-03  0.00000
   1578.    6.337  3.28E-07  8.17E-05  2.84E-27  7.07E-25  0.00E+00  0.00E+00  3.28E-07  8.17E-05  8.39E-03  0.00000
   1580.    6.329  4.52E-07  1.13E-04  8.55E-28  2.13E-25  0.00E+00  0.00E+00  4.52E-07  1.13E-04  8.39E-03  0.00000
   1582.    6.321  5.10E-07  1.28E-04  2.63E-23  6.58E-21  0.00E+00  0.00E+00  5.10E-07  1.28E-04  8.40E-03  0.00000
   1584.    6.313  5.51E-07  1.38E-04  5.58E-21  1.40E-18  0.00E+00  0.00E+00  5.51E-07  1.38E-04  8.40E-03  0.00000
   1586.    6.305  5.74E-07  1.44E-04  6.21E-20  1.56E-17  0.00E+00  0.00E+00  5.74E-07  1.44E-04  8.40E-03  0.00000
   1588.    6.297  5.55E-07  1.40E-04  1.18E-19  2.97E-17  0.00E+00  0.00E+00  5.55E-07  1.40E-04  8.40E-03  0.00000
   1590.    6.289  4.93E-07  1.25E-04  3.29E-20  8.32E-18  0.00E+00  0.00E+00  4.93E-07  1.25E-04  8.40E-03  0.00000
   1592.    6.281  4.70E-07  1.19E-04  3.12E-21  7.90E-19  0.00E+00  0.00E+00  4.70E-07  1.19E-04  8.40E-03  0.00000
   1594.    6.274  4.32E-07  1.10E-04  8.61E-21  2.19E-18  0.00E+00  0.00E+00  4.32E-07  1.10E-04  8.40E-03  0.00000
   1596.    6.266  4.49E-07  1.14E-04  4.13E-19  1.05E-16  0.00E+00  0.00E+00  4.49E-07  1.14E-04  8.40E-03  0.00000
   1598.    6.258  5.42E-07  1.38E-04  2.82E-18  7.19E-16  0.00E+00  0.00E+00  5.42E-07  1.38E-04  8.40E-03  0.00000
   1600.    6.250  5.15E-07  1.32E-04  2.08E-18  5.33E-16  0.00E+00  0.00E+00  5.15E-07  1.32E-04  8.40E-03  0.00000
  iv         1605
1                                             RADIANCE(WATTS/CM2-STER-XXX)
0  FREQ   WAVLEN    PATH THERMAL      SURFACE EMISSION    SURFACE REFLECTED     TOTAL RADIANCE   INTEGRAL    TOTAL
  (CM-1) (MICRN)    (CM-1)   (MICRN)    (CM-1)   (MICRN)    (CM-1)   (MICRN)    (CM-1)   (MICRN)    (CM-1)   TRANS

   1602.    6.242  4.27E-07  1.09E-04  4.26E-20  1.09E-17  0.00E+00  0.00E+00  4.27E-07  1.09E-04  8.41E-03  0.00000
   1604.    6.234  4.54E-07  1.17E-04  5.25E-21  1.35E-18  0.00E+00  0.00E+00  4.54E-07  1.17E-04  8.41E-03  0.00000
   1606.    6.227  4.54E-07  1.17E-04  5.25E-21  1.35E-18  0.00E+00  0.00E+00  4.54E-07  1.17E-04  8.41E-03  0.00000
   1608.    6.219  3.73E-07  9.64E-05  4.22E-25  1.09E-22  0.00E+00  0.00E+00  3.73E-07  9.64E-05  8.41E-03  0.00000
   1610.    6.211  3.88E-07  1.01E-04  1.12E-25  2.91E-23  0.00E+00  0.00E+00  3.88E-07  1.01E-04  8.41E-03  0.00000
   1612.    6.203  4.28E-07  1.11E-04  2.50E-27  6.49E-25  0.00E+00  0.00E+00  4.28E-07  1.11E-04  8.41E-03  0.00000
   1614.    6.196  3.59E-07  9.35E-05  2.89E-29  7.53E-27  0.00E+00  0.00E+00  3.59E-07  9.35E-05  8.41E-03  0.00000
   1616.    6.188  2.49E-07  6.51E-05  1.06E-22  2.77E-20  0.00E+00  0.00E+00  2.49E-07  6.51E-05  8.41E-03  0.00000
   1618.    6.180  2.66E-07  6.97E-05  1.06E-22  2.78E-20  0.00E+00  0.00E+00  2.66E-07  6.97E-05  8.41E-03  0.00000
   1620.    6.173  3.36E-07  8.82E-05  0.00E+00  0.00E+00  0.00E+00  0.00E+00  3.36E-07  8.82E-05  8.41E-03  0.00000
   1622.    6.165  2.95E-07  7.76E-05  5.84E-34  1.54E-31  0.00E+00  0.00E+00  2.95E-07  7.76E-05  8.41E-03  0.00000
   1624.    6.158  2.58E-07  6.80E-05  1.75E-33  4.62E-31  0.00E+00  0.00E+00  2.58E-07  6.80E-05  8.41E-03  0.00000
   1626.    6.150  2.86E-07  7.57E-05  7.69E-32  2.03E-29  0.00E+00  0.00E+00  2.86E-07  7.57E-05  8.41E-03  0.00000
   1628.    6.143  2.84E-07  7.54E-05  2.29E-31  6.07E-29  0.00E+00  0.00E+00  2.84E-07  7.54E-05  8.41E-03  0.00000
   1630.    6.135  3.52E-07  9.35E-05  7.64E-32  2.03E-29  0.00E+00  0.00E+00  3.52E-07  9.35E-05  8.42E-03  0.00000
   1632.    6.127  3.47E-07  9.23E-05  4.99E-37  1.33E-34  0.00E+00  0.00E+00  3.47E-07  9.23E-05  8.42E-03  0.00000
   1634.    6.120  2.49E-07  6.64E-05  7.99E-44  2.13E-41  0.00E+00  0.00E+00  2.49E-07  6.64E-05  8.42E-03  0.00000
   1636.    6.112  2.00E-07  5.35E-05  0.00E+00  0.00E+00  0.00E+00  0.00E+00  2.00E-07  5.35E-05  8.42E-03  0.00000
   1638.    6.105  2.41E-07  6.46E-05  0.00E+00  0.00E+00  0.00E+00  0.00E+00  2.41E-07  6.46E-05  8.42E-03  0.00000
   1640.    6.098  2.97E-07  7.98E-05  1.40E-45  3.77E-43  0.00E+00  0.00E+00  2.97E-07  7.98E-05  8.42E-03  0.00000
   1642.    6.090  3.14E-07  8.47E-05  4.20E-45  1.13E-42  0.00E+00  0.00E+00  3.14E-07  8.47E-05  8.42E-03  0.00000
   1644.    6.083  2.69E-07  7.27E-05  1.40E-45  3.78E-43  0.00E+00  0.00E+00  2.69E-07  7.27E-05  8.42E-03  0.00000
   1646.    6.075  1.98E-07  5.37E-05  0.00E+00  0.00E+00  0.00E+00  0.00E+00  1.98E-07  5.37E-05  8.42E-03  0.00000
   1648.    6.068  2.04E-07  5.53E-05  0.00E+00  0.00E+00  0.00E+00  0.00E+00  2.04E-07  5.53E-05  8.42E-03  0.00000
   1650.    6.061  2.23E-07  6.08E-05  0.00E+00  0.00E+00  0.00E+00  0.00E+00  2.23E-07  6.08E-05  8.42E-03  0.00000
   1652.    6.053  1.85E-07  5.04E-05  0.00E+00  0.00E+00  0.00E+00  0.00E+00  1.85E-07  5.04E-05  8.42E-03  0.00000
   1654.    6.046  1.75E-07  4.78E-05  0.00E+00  0.00E+00  0.00E+00  0.00E+00  1.75E-07  4.78E-05  8.42E-03  0.00000
   1656.    6.039  2.36E-07  6.46E-05  0.00E+00  0.00E+00  0.00E+00  0.00E+00  2.36E-07  6.46E-05  8.42E-03  0.00000
   1658.    6.031  3.05E-07  8.38E-05  2.80E-45  7.71E-43  0.00E+00  0.00E+00  3.05E-07  8.38E-05  8.42E-03  0.00000
   1660.    6.024  3.00E-07  8.28E-05  2.80E-45  7.72E-43  0.00E+00  0.00E+00  3.00E-07  8.28E-05  8.42E-03  0.00000
   1662.    6.017  2.32E-07  6.40E-05  7.13E-36  1.97E-33  0.00E+00  0.00E+00  2.32E-07  6.40E-05  8.42E-03  0.00000
   1664.    6.010  2.56E-07  7.09E-05  7.13E-36  1.97E-33  0.00E+00  0.00E+00  2.56E-07  7.09E-05  8.42E-03  0.00000
   1666.    6.002  2.95E-07  8.19E-05  0.00E+00  0.00E+00  0.00E+00  0.00E+00  2.95E-07  8.19E-05  8.42E-03  0.00000
   1668.    5.995  2.26E-07  6.28E-05  0.00E+00  0.00E+00  0.00E+00  0.00E+00  2.26E-07  6.28E-05  8.42E-03  0.00000
   1670.    5.988  1.82E-07  5.08E-05  0.00E+00  0.00E+00  0.00E+00  0.00E+00  1.82E-07  5.08E-05  8.43E-03  0.00000
   1672.    5.981  2.11E-07  5.90E-05  0.00E+00  0.00E+00  0.00E+00  0.00E+00  2.11E-07  5.90E-05  8.43E-03  0.00000
   1674.    5.974  2.16E-07  6.06E-05  0.00E+00  0.00E+00  0.00E+00  0.00E+00  2.16E-07  6.06E-05  8.43E-03  0.00000
   1676.    5.967  2.05E-07  5.75E-05  0.00E+00  0.00E+00  0.00E+00  0.00E+00  2.05E-07  5.75E-05  8.43E-03  0.00000
   1678.    5.959  2.44E-07  6.87E-05  0.00E+00  0.00E+00  0.00E+00  0.00E+00  2.44E-07  6.87E-05  8.43E-03  0.00000
   1680.    5.952  2.30E-07  6.49E-05  0.00E+00  0.00E+00  0.00E+00  0.00E+00  2.30E-07  6.49E-05  8.43E-03  0.00000
   1682.    5.945  2.01E-07  5.69E-05  0.00E+00  0.00E+00  0.00E+00  0.00E+00  2.01E-07  5.69E-05  8.43E-03  0.00000
   1684.    5.938  1.60E-07  4.54E-05  0.00E+00  0.00E+00  0.00E+00  0.00E+00  1.60E-07  4.54E-05  8.43E-03  0.00000
   1686.    5.931  1.86E-07  5.30E-05  0.00E+00  0.00E+00  0.00E+00  0.00E+00  1.86E-07  5.30E-05  8.43E-03  0.00000
   1688.    5.924  2.16E-07  6.14E-05  0.00E+00  0.00E+00  0.00E+00  0.00E+00  2.16E-07  6.14E-05  8.43E-03  0.00000
   1690.    5.917  2.24E-07  6.39E-05  0.00E+00  0.00E+00  0.00E+00  0.00E+00  2.24E-07  6.39E-05  8.43E-03  0.00000
   1692.    5.910  2.42E-07  6.94E-05  0.00E+00  0.00E+00  0.00E+00  0.00E+00  2.42E-07  6.94E-05  8.43E-03  0.00000
   1694.    5.903  2.03E-07  5.82E-05  0.00E+00  0.00E+00  0.00E+00  0.00E+00  2.03E-07  5.82E-05  8.43E-03  0.00000
   1696.    5.896  1.61E-07  4.62E-05  0.00E+00  0.00E+00  0.00E+00  0.00E+00  1.61E-07  4.62E-05  8.43E-03  0.00000
   1698.    5.889  1.61E-07  4.63E-05  0.00E+00  0.00E+00  0.00E+00  0.00E+00  1.61E-07  4.63E-05  8.43E-03  0.00000
   1700.    5.882  1.46E-07  4.23E-05  0.00E+00  0.00E+00  0.00E+00  0.00E+00  1.46E-07  4.23E-05  8.43E-03  0.00000
  iv         1705
1                                             RADIANCE(WATTS/CM2-STER-XXX)
0  FREQ   WAVLEN    PATH THERMAL      SURFACE EMISSION    SURFACE REFLECTED     TOTAL RADIANCE   INTEGRAL    TOTAL
  (CM-1) (MICRN)    (CM-1)   (MICRN)    (CM-1)   (MICRN)    (CM-1)   (MICRN)    (CM-1)   (MICRN)    (CM-1)   TRANS

   1702.    5.875  1.71E-07  4.96E-05  0.00E+00  0.00E+00  0.00E+00  0.00E+00  1.71E-07  4.96E-05  8.43E-03  0.00000
   1704.    5.869  1.77E-07  5.15E-05  0.00E+00  0.00E+00  0.00E+00  0.00E+00  1.77E-07  5.15E-05  8.43E-03  0.00000
   1706.    5.862  1.73E-07  5.03E-05  0.00E+00  0.00E+00  0.00E+00  0.00E+00  1.73E-07  5.03E-05  8.43E-03  0.00000
   1708.    5.855  2.20E-07  6.42E-05  8.17E-39  2.38E-36  0.00E+00  0.00E+00  2.20E-07  6.42E-05  8.43E-03  0.00000
   1710.    5.848  2.38E-07  6.96E-05  2.45E-38  7.16E-36  0.00E+00  0.00E+00  2.38E-07  6.96E-05  8.43E-03  0.00000
   1712.    5.841  2.38E-07  6.98E-05  8.17E-39  2.39E-36  0.00E+00  0.00E+00  2.38E-07  6.98E-05  8.43E-03  0.00000
   1714.    5.834  1.93E-07  5.67E-05  1.82E-44  5.35E-42  0.00E+00  0.00E+00  1.93E-07  5.67E-05  8.43E-03  0.00000
   1716.    5.828  1.53E-07  4.52E-05  0.00E+00  0.00E+00  0.00E+00  0.00E+00  1.53E-07  4.52E-05  8.43E-03  0.00000
   1718.    5.821  1.49E-07  4.40E-05  0.00E+00  0.00E+00  0.00E+00  0.00E+00  1.49E-07  4.40E-05  8.43E-03  0.00000
   1720.    5.814  2.08E-07  6.15E-05  1.10E-37  3.25E-35  0.00E+00  0.00E+00  2.08E-07  6.15E-05  8.43E-03  0.00000
   1722.    5.807  2.47E-07  7.33E-05  8.02E-32  2.38E-29  0.00E+00  0.00E+00  2.47E-07  7.33E-05  8.44E-03  0.00000
   1724.    5.800  2.67E-07  7.94E-05  5.57E-27  1.65E-24  0.00E+00  0.00E+00  2.67E-07  7.94E-05  8.44E-03  0.00000
   1726.    5.794  2.91E-07  8.66E-05  1.17E-26  3.47E-24  0.00E+00  0.00E+00  2.91E-07  8.66E-05  8.44E-03  0.00000
   1728.    5.787  2.66E-07  7.94E-05  3.13E-27  9.35E-25  0.00E+00  0.00E+00  2.66E-07  7.94E-05  8.44E-03  0.00000
   1730.    5.780  2.06E-07  6.16E-05  2.13E-30  6.37E-28  0.00E+00  0.00E+00  2.06E-07  6.16E-05  8.44E-03  0.00000
   1732.    5.774  1.67E-07  5.02E-05  5.61E-39  1.68E-36  0.00E+00  0.00E+00  1.67E-07  5.02E-05  8.44E-03  0.00000
   1734.    5.767  1.38E-07  4.16E-05  0.00E+00  0.00E+00  0.00E+00  0.00E+00  1.38E-07  4.16E-05  8.44E-03  0.00000
   1736.    5.760  1.72E-07  5.18E-05  0.00E+00  0.00E+00  0.00E+00  0.00E+00  1.72E-07  5.18E-05  8.44E-03  0.00000
   1738.    5.754  1.77E-07  5.34E-05  9.34E-31  2.82E-28  0.00E+00  0.00E+00  1.77E-07  5.34E-05  8.44E-03  0.00000
   1740.    5.747  1.63E-07  4.95E-05  2.80E-30  8.48E-28  0.00E+00  0.00E+00  1.63E-07  4.95E-05  8.44E-03  0.00000
   1742.    5.741  1.91E-07  5.80E-05  9.34E-31  2.83E-28  0.00E+00  0.00E+00  1.91E-07  5.80E-05  8.44E-03  0.00000
   1744.    5.734  1.83E-07  5.57E-05  2.28E-40  6.93E-38  0.00E+00  0.00E+00  1.83E-07  5.57E-05  8.44E-03  0.00000
   1746.    5.727  1.80E-07  5.49E-05  6.84E-40  2.08E-37  0.00E+00  0.00E+00  1.80E-07  5.49E-05  8.44E-03  0.00000
   1748.    5.721  1.59E-07  4.86E-05  1.02E-36  3.11E-34  0.00E+00  0.00E+00  1.59E-07  4.86E-05  8.44E-03  0.00000
   1750.    5.714  1.58E-07  4.85E-05  1.58E-33  4.85E-31  0.00E+00  0.00E+00  1.58E-07  4.85E-05  8.44E-03  0.00000
   1752.    5.708  1.93E-07  5.92E-05  2.32E-27  7.13E-25  0.00E+00  0.00E+00  1.93E-07  5.92E-05  8.44E-03  0.00000
   1754.    5.701  2.48E-07  7.63E-05  7.20E-27  2.21E-24  0.00E+00  0.00E+00  2.48E-07  7.63E-05  8.44E-03  0.00000
   1756.    5.695  2.18E-07  6.73E-05  3.00E-22  9.26E-20  0.00E+00  0.00E+00  2.18E-07  6.73E-05  8.44E-03  0.00000
   1758.    5.688  2.13E-07  6.60E-05  3.00E-22  9.28E-20  0.00E+00  0.00E+00  2.13E-07  6.60E-05  8.44E-03  0.00000
   1760.    5.682  2.09E-07  6.47E-05  9.65E-21  2.99E-18  0.00E+00  0.00E+00  2.09E-07  6.47E-05  8.44E-03  0.00000
   1762.    5.675  1.77E-07  5.49E-05  2.89E-20  8.98E-18  0.00E+00  0.00E+00  1.77E-07  5.49E-05  8.44E-03  0.00000
   1764.    5.669  2.35E-07  7.33E-05  9.65E-21  3.00E-18  0.00E+00  0.00E+00  2.35E-07  7.33E-05  8.44E-03  0.00000
   1766.    5.663  2.54E-07  7.93E-05  1.82E-23  5.69E-21  0.00E+00  0.00E+00  2.54E-07  7.93E-05  8.44E-03  0.00000
   1768.    5.656  1.94E-07  6.07E-05  5.31E-24  1.66E-21  0.00E+00  0.00E+00  1.94E-07  6.07E-05  8.44E-03  0.00000
   1770.    5.650  1.58E-07  4.95E-05  3.46E-31  1.09E-28  0.00E+00  0.00E+00  1.58E-07  4.95E-05  8.45E-03  0.00000
   1772.    5.643  1.25E-07  3.91E-05  1.19E-30  3.73E-28  0.00E+00  0.00E+00  1.25E-07  3.91E-05  8.45E-03  0.00000
   1774.    5.637  1.50E-07  4.71E-05  6.13E-28  1.93E-25  0.00E+00  0.00E+00  1.50E-07  4.71E-05  8.45E-03  0.00000
   1776.    5.631  1.99E-07  6.27E-05  4.04E-24  1.27E-21  0.00E+00  0.00E+00  1.99E-07  6.27E-05  8.45E-03  0.00000
   1778.    5.624  2.24E-07  7.09E-05  1.21E-23  3.83E-21  0.00E+00  0.00E+00  2.24E-07  7.09E-05  8.45E-03  0.00000
   1780.    5.618  1.86E-07  5.88E-05  1.27E-23  4.02E-21  0.00E+00  0.00E+00  1.86E-07  5.88E-05  8.45E-03  0.00000
   1782.    5.612  2.06E-07  6.54E-05  1.62E-21  5.15E-19  0.00E+00  0.00E+00  2.06E-07  6.54E-05  8.45E-03  0.00000
   1784.    5.605  2.24E-07  7.13E-05  9.36E-20  2.98E-17  0.00E+00  0.00E+00  2.24E-07  7.13E-05  8.45E-03  0.00000
   1786.    5.599  2.57E-07  8.21E-05  6.69E-17  2.13E-14  0.00E+00  0.00E+00  2.57E-07  8.21E-05  8.45E-03  0.00000
   1788.    5.593  2.68E-07  8.58E-05  6.71E-17  2.15E-14  0.00E+00  0.00E+00  2.68E-07  8.58E-05  8.45E-03  0.00000
   1790.    5.587  1.91E-07  6.13E-05  2.29E-19  7.34E-17  0.00E+00  0.00E+00  1.91E-07  6.13E-05  8.45E-03  0.00000
   1792.    5.580  1.32E-07  4.23E-05  7.60E-19  2.44E-16  0.00E+00  0.00E+00  1.32E-07  4.23E-05  8.45E-03  0.00000
   1794.    5.574  1.50E-07  4.84E-05  7.60E-19  2.45E-16  0.00E+00  0.00E+00  1.50E-07  4.84E-05  8.45E-03  0.00000
   1796.    5.568  1.83E-07  5.89E-05  4.06E-24  1.31E-21  0.00E+00  0.00E+00  1.83E-07  5.89E-05  8.45E-03  0.00000
   1798.    5.562  1.94E-07  6.29E-05  3.83E-18  1.24E-15  0.00E+00  0.00E+00  1.94E-07  6.29E-05  8.45E-03  0.00000
   1800.    5.556  1.58E-07  5.11E-05  1.15E-17  3.72E-15  0.00E+00  0.00E+00  1.58E-07  5.11E-05  8.45E-03  0.00000
  iv         1805
1                                             RADIANCE(WATTS/CM2-STER-XXX)
0  FREQ   WAVLEN    PATH THERMAL      SURFACE EMISSION    SURFACE REFLECTED     TOTAL RADIANCE   INTEGRAL    TOTAL
  (CM-1) (MICRN)    (CM-1)   (MICRN)    (CM-1)   (MICRN)    (CM-1)   (MICRN)    (CM-1)   (MICRN)    (CM-1)   TRANS

   1802.    5.549  1.91E-07  6.22E-05  1.24E-15  4.02E-13  0.00E+00  0.00E+00  1.91E-07  6.22E-05  8.45E-03  0.00000
   1804.    5.543  2.60E-07  8.46E-05  6.53E-15  2.12E-12  0.00E+00  0.00E+00  2.60E-07  8.46E-05  8.45E-03  0.00000
   1806.    5.537  2.73E-07  8.89E-05  5.60E-15  1.83E-12  0.00E+00  0.00E+00  2.73E-07  8.89E-05  8.45E-03  0.00000
   1808.    5.531  2.43E-07  7.96E-05  1.55E-15  5.07E-13  0.00E+00  0.00E+00  2.43E-07  7.96E-05  8.45E-03  0.00000
   1810.    5.525  1.89E-07  6.19E-05  3.83E-15  1.25E-12  0.00E+00  0.00E+00  1.89E-07  6.19E-05  8.45E-03  0.00000
   1812.    5.519  2.07E-07  6.78E-05  6.06E-13  1.99E-10  0.00E+00  0.00E+00  2.07E-07  6.78E-05  8.45E-03  0.00000
   1814.    5.513  3.08E-07  1.01E-04  1.03E-11  3.39E-09  0.00E+00  0.00E+00  3.08E-07  1.01E-04  8.45E-03  0.00001
   1816.    5.507  3.14E-07  1.04E-04  1.39E-11  4.60E-09  0.00E+00  0.00E+00  3.14E-07  1.04E-04  8.45E-03  0.00002
   1818.    5.501  3.20E-07  1.06E-04  4.15E-11  1.37E-08  0.00E+00  0.00E+00  3.20E-07  1.06E-04  8.46E-03  0.00005
   1820.    5.495  3.30E-07  1.09E-04  5.13E-11  1.70E-08  0.00E+00  0.00E+00  3.31E-07  1.09E-04  8.46E-03  0.00007
   1822.    5.488  2.65E-07  8.79E-05  6.56E-12  2.18E-09  0.00E+00  0.00E+00  2.65E-07  8.79E-05  8.46E-03  0.00001
   1824.    5.482  1.86E-07  6.20E-05  3.22E-16  1.07E-13  0.00E+00  0.00E+00  1.86E-07  6.20E-05  8.46E-03  0.00000
   1826.    5.476  1.65E-07  5.49E-05  1.77E-16  5.89E-14  0.00E+00  0.00E+00  1.65E-07  5.49E-05  8.46E-03  0.00000
   1828.    5.470  1.66E-07  5.54E-05  3.78E-25  1.26E-22  0.00E+00  0.00E+00  1.66E-07  5.54E-05  8.46E-03  0.00000
   1830.    5.464  1.28E-07  4.29E-05  1.65E-25  5.54E-23  0.00E+00  0.00E+00  1.28E-07  4.29E-05  8.46E-03  0.00000
   1832.    5.459  1.92E-07  6.45E-05  5.61E-15  1.88E-12  0.00E+00  0.00E+00  1.92E-07  6.45E-05  8.46E-03  0.00000
   1834.    5.453  2.51E-07  8.45E-05  2.86E-14  9.64E-12  0.00E+00  0.00E+00  2.51E-07  8.45E-05  8.46E-03  0.00000
   1836.    5.447  2.23E-07  7.51E-05  2.59E-14  8.72E-12  0.00E+00  0.00E+00  2.23E-07  7.51E-05  8.46E-03  0.00000
   1838.    5.441  2.21E-07  7.47E-05  5.25E-14  1.77E-11  0.00E+00  0.00E+00  2.21E-07  7.47E-05  8.46E-03  0.00000
   1840.    5.435  2.56E-07  8.65E-05  9.81E-14  3.32E-11  0.00E+00  0.00E+00  2.56E-07  8.65E-05  8.46E-03  0.00000
   1842.    5.429  1.88E-07  6.39E-05  2.70E-14  9.17E-12  0.00E+00  0.00E+00  1.88E-07  6.39E-05  8.46E-03  0.00000
   1844.    5.423  1.17E-07  3.96E-05  7.50E-17  2.55E-14  0.00E+00  0.00E+00  1.17E-07  3.96E-05  8.46E-03  0.00000
   1846.    5.417  1.39E-07  4.73E-05  2.02E-16  6.87E-14  0.00E+00  0.00E+00  1.39E-07  4.73E-05  8.46E-03  0.00000
   1848.    5.411  1.94E-07  6.62E-05  2.10E-12  7.18E-10  0.00E+00  0.00E+00  1.94E-07  6.62E-05  8.46E-03  0.00000
   1850.    5.405  2.78E-07  9.50E-05  8.75E-11  3.00E-08  0.00E+00  0.00E+00  2.78E-07  9.50E-05  8.46E-03  0.00013
   1852.    5.400  3.13E-07  1.07E-04  4.94E-10  1.69E-07  0.00E+00  0.00E+00  3.14E-07  1.08E-04  8.46E-03  0.00072
   1854.    5.394  3.37E-07  1.16E-04  2.05E-09  7.05E-07  0.00E+00  0.00E+00  3.39E-07  1.17E-04  8.46E-03  0.00299
   1856.    5.388  3.35E-07  1.16E-04  2.38E-09  8.21E-07  0.00E+00  0.00E+00  3.38E-07  1.16E-04  8.46E-03  0.00348
   1858.    5.382  2.83E-07  9.78E-05  7.47E-10  2.58E-07  0.00E+00  0.00E+00  2.84E-07  9.80E-05  8.46E-03  0.00110
   1860.    5.376  2.64E-07  9.14E-05  1.17E-10  4.06E-08  0.00E+00  0.00E+00  2.64E-07  9.15E-05  8.47E-03  0.00017
   1862.    5.371  2.89E-07  1.00E-04  2.36E-10  8.17E-08  0.00E+00  0.00E+00  2.89E-07  1.00E-04  8.47E-03  0.00035
   1864.    5.365  2.61E-07  9.06E-05  1.20E-10  4.18E-08  0.00E+00  0.00E+00  2.61E-07  9.07E-05  8.47E-03  0.00018
   1866.    5.359  1.66E-07  5.80E-05  1.87E-12  6.51E-10  0.00E+00  0.00E+00  1.66E-07  5.80E-05  8.47E-03  0.00000
   1868.    5.353  1.05E-07  3.67E-05  8.04E-18  2.81E-15  0.00E+00  0.00E+00  1.05E-07  3.67E-05  8.47E-03  0.00000
   1870.    5.348  1.33E-07  4.66E-05  6.35E-14  2.22E-11  0.00E+00  0.00E+00  1.33E-07  4.66E-05  8.47E-03  0.00000
   1872.    5.342  2.42E-07  8.49E-05  2.88E-10  1.01E-07  0.00E+00  0.00E+00  2.43E-07  8.50E-05  8.47E-03  0.00045
   1874.    5.336  3.27E-07  1.15E-04  3.21E-09  1.13E-06  0.00E+00  0.00E+00  3.31E-07  1.16E-04  8.47E-03  0.00502
   1876.    5.330  3.43E-07  1.21E-04  8.11E-09  2.85E-06  0.00E+00  0.00E+00  3.51E-07  1.23E-04  8.47E-03  0.01272
   1878.    5.325  3.33E-07  1.17E-04  1.11E-08  3.92E-06  0.00E+00  0.00E+00  3.44E-07  1.21E-04  8.47E-03  0.01754
   1880.    5.319  3.36E-07  1.19E-04  1.58E-08  5.58E-06  0.00E+00  0.00E+00  3.52E-07  1.24E-04  8.47E-03  0.02509
   1882.    5.313  3.43E-07  1.22E-04  1.97E-08  6.98E-06  0.00E+00  0.00E+00  3.63E-07  1.29E-04  8.47E-03  0.03145
   1884.    5.308  2.65E-07  9.41E-05  5.79E-09  2.05E-06  0.00E+00  0.00E+00  2.71E-07  9.61E-05  8.47E-03  0.00926
   1886.    5.302  2.49E-07  8.85E-05  1.47E-10  5.23E-08  0.00E+00  0.00E+00  2.49E-07  8.86E-05  8.47E-03  0.00024
   1888.    5.297  2.18E-07  7.76E-05  1.16E-10  4.14E-08  0.00E+00  0.00E+00  2.18E-07  7.76E-05  8.47E-03  0.00019
   1890.    5.291  1.60E-07  5.70E-05  3.23E-11  1.16E-08  0.00E+00  0.00E+00  1.60E-07  5.70E-05  8.47E-03  0.00005
   1892.    5.285  2.27E-07  8.13E-05  4.95E-11  1.77E-08  0.00E+00  0.00E+00  2.27E-07  8.13E-05  8.47E-03  0.00008
   1894.    5.280  2.09E-07  7.49E-05  3.54E-11  1.27E-08  0.00E+00  0.00E+00  2.09E-07  7.49E-05  8.47E-03  0.00006
   1896.    5.274  2.08E-07  7.48E-05  1.12E-09  4.03E-07  0.00E+00  0.00E+00  2.09E-07  7.52E-05  8.47E-03  0.00189
   1898.    5.269  3.00E-07  1.08E-04  1.55E-08  5.59E-06  0.00E+00  0.00E+00  3.15E-07  1.14E-04  8.47E-03  0.02631
   1900.    5.263  3.28E-07  1.18E-04  3.35E-08  1.21E-05  0.00E+00  0.00E+00  3.61E-07  1.30E-04  8.48E-03  0.05688
  iv         1905
1                                             RADIANCE(WATTS/CM2-STER-XXX)
0  FREQ   WAVLEN    PATH THERMAL      SURFACE EMISSION    SURFACE REFLECTED     TOTAL RADIANCE   INTEGRAL    TOTAL
  (CM-1) (MICRN)    (CM-1)   (MICRN)    (CM-1)   (MICRN)    (CM-1)   (MICRN)    (CM-1)   (MICRN)    (CM-1)   TRANS

   1902.    5.258  2.95E-07  1.07E-04  1.84E-08  6.64E-06  0.00E+00  0.00E+00  3.13E-07  1.13E-04  8.48E-03  0.03133
   1904.    5.252  2.49E-07  9.02E-05  3.99E-09  1.45E-06  0.00E+00  0.00E+00  2.53E-07  9.17E-05  8.48E-03  0.00685
   1906.    5.247  2.33E-07  8.46E-05  1.34E-09  4.88E-07  0.00E+00  0.00E+00  2.34E-07  8.51E-05  8.48E-03  0.00233
   1908.    5.241  1.66E-07  6.05E-05  4.29E-10  1.56E-07  0.00E+00  0.00E+00  1.67E-07  6.07E-05  8.48E-03  0.00074
   1910.    5.236  1.68E-07  6.13E-05  3.71E-10  1.36E-07  0.00E+00  0.00E+00  1.68E-07  6.15E-05  8.48E-03  0.00066
   1912.    5.230  2.50E-07  9.13E-05  2.66E-09  9.73E-07  0.00E+00  0.00E+00  2.52E-07  9.23E-05  8.48E-03  0.00473
   1914.    5.225  2.66E-07  9.76E-05  3.04E-09  1.11E-06  0.00E+00  0.00E+00  2.69E-07  9.87E-05  8.48E-03  0.00541
   1916.    5.219  2.09E-07  7.66E-05  6.44E-10  2.37E-07  0.00E+00  0.00E+00  2.09E-07  7.69E-05  8.48E-03  0.00115
   1918.    5.214  1.29E-07  4.76E-05  5.50E-12  2.02E-09  0.00E+00  0.00E+00  1.29E-07  4.76E-05  8.48E-03  0.00001
   1920.    5.208  1.53E-07  5.66E-05  7.23E-14  2.66E-11  0.00E+00  0.00E+00  1.53E-07  5.66E-05  8.48E-03  0.00000
   1922.    5.203  1.44E-07  5.32E-05  5.73E-14  2.12E-11  0.00E+00  0.00E+00  1.44E-07  5.32E-05  8.48E-03  0.00000
   1924.    5.198  1.67E-07  6.19E-05  9.73E-10  3.60E-07  0.00E+00  0.00E+00  1.68E-07  6.22E-05  8.48E-03  0.00181
   1926.    5.192  2.65E-07  9.82E-05  1.21E-08  4.50E-06  0.00E+00  0.00E+00  2.77E-07  1.03E-04  8.48E-03  0.02262
   1928.    5.187  2.96E-07  1.10E-04  4.72E-08  1.75E-05  0.00E+00  0.00E+00  3.43E-07  1.28E-04  8.48E-03  0.08855
   1930.    5.181  2.90E-07  1.08E-04  7.66E-08  2.85E-05  0.00E+00  0.00E+00  3.66E-07  1.36E-04  8.48E-03  0.14442
   1932.    5.176  2.40E-07  8.95E-05  3.74E-08  1.40E-05  0.00E+00  0.00E+00  2.77E-07  1.03E-04  8.48E-03  0.07075
   1934.    5.171  2.33E-07  8.72E-05  2.75E-08  1.03E-05  0.00E+00  0.00E+00  2.61E-07  9.76E-05  8.48E-03  0.05284
   1936.    5.165  2.80E-07  1.05E-04  5.86E-08  2.20E-05  0.00E+00  0.00E+00  3.39E-07  1.27E-04  8.48E-03  0.11282
   1938.    5.160  2.87E-07  1.08E-04  3.80E-08  1.43E-05  0.00E+00  0.00E+00  3.25E-07  1.22E-04  8.48E-03  0.07341
   1940.    5.155  2.48E-07  9.33E-05  1.06E-08  3.99E-06  0.00E+00  0.00E+00  2.59E-07  9.73E-05  8.49E-03  0.02061
   1942.    5.149  1.52E-07  5.75E-05  5.59E-10  2.11E-07  0.00E+00  0.00E+00  1.53E-07  5.77E-05  8.49E-03  0.00109
   1944.    5.144  1.32E-07  4.98E-05  3.23E-13  1.22E-10  0.00E+00  0.00E+00  1.32E-07  4.98E-05  8.49E-03  0.00000
   1946.    5.139  1.66E-07  6.30E-05  2.90E-09  1.10E-06  0.00E+00  0.00E+00  1.69E-07  6.41E-05  8.49E-03  0.00583
   1948.    5.133  2.44E-07  9.26E-05  1.96E-08  7.42E-06  0.00E+00  0.00E+00  2.64E-07  1.00E-04  8.49E-03  0.03936
   1950.    5.128  2.70E-07  1.03E-04  5.45E-08  2.07E-05  0.00E+00  0.00E+00  3.25E-07  1.24E-04  8.49E-03  0.11032
   1952.    5.123  2.59E-07  9.89E-05  8.33E-08  3.17E-05  0.00E+00  0.00E+00  3.43E-07  1.31E-04  8.49E-03  0.16943
   1954.    5.118  2.30E-07  8.78E-05  3.67E-08  1.40E-05  0.00E+00  0.00E+00  2.67E-07  1.02E-04  8.49E-03  0.07492
   1956.    5.112  2.26E-07  8.63E-05  1.56E-08  5.98E-06  0.00E+00  0.00E+00  2.41E-07  9.23E-05  8.49E-03  0.03235
   1958.    5.107  2.50E-07  9.60E-05  6.37E-08  2.44E-05  0.00E+00  0.00E+00  3.14E-07  1.20E-04  8.49E-03  0.13255
   1960.    5.102  2.36E-07  9.06E-05  6.06E-08  2.33E-05  0.00E+00  0.00E+00  2.96E-07  1.14E-04  8.49E-03  0.12636
   1962.    5.097  2.41E-07  9.27E-05  3.85E-08  1.48E-05  0.00E+00  0.00E+00  2.79E-07  1.08E-04  8.49E-03  0.08124
   1964.    5.092  2.47E-07  9.51E-05  4.55E-08  1.76E-05  0.00E+00  0.00E+00  2.92E-07  1.13E-04  8.49E-03  0.09642
   1966.    5.086  1.72E-07  6.64E-05  9.07E-09  3.50E-06  0.00E+00  0.00E+00  1.81E-07  6.99E-05  8.49E-03  0.01924
   1968.    5.081  1.77E-07  6.86E-05  1.02E-08  3.96E-06  0.00E+00  0.00E+00  1.87E-07  7.25E-05  8.49E-03  0.02211
   1970.    5.076  2.33E-07  9.05E-05  7.84E-08  3.04E-05  0.00E+00  0.00E+00  3.12E-07  1.21E-04  8.49E-03  0.17040
   1972.    5.071  2.01E-07  7.82E-05  1.72E-07  6.70E-05  0.00E+00  0.00E+00  3.73E-07  1.45E-04  8.49E-03  0.37592
   1974.    5.066  1.82E-07  7.08E-05  1.89E-07  7.38E-05  0.00E+00  0.00E+00  3.71E-07  1.45E-04  8.49E-03  0.41541
   1976.    5.061  1.96E-07  7.66E-05  1.37E-07  5.36E-05  0.00E+00  0.00E+00  3.33E-07  1.30E-04  8.49E-03  0.30341
   1978.    5.056  1.80E-07  7.03E-05  1.82E-07  7.11E-05  0.00E+00  0.00E+00  3.62E-07  1.41E-04  8.50E-03  0.40544
   1980.    5.051  1.66E-07  6.51E-05  2.08E-07  8.16E-05  0.00E+00  0.00E+00  3.74E-07  1.47E-04  8.50E-03  0.46681
   1982.    5.045  1.80E-07  7.09E-05  1.82E-07  7.16E-05  0.00E+00  0.00E+00  3.63E-07  1.42E-04  8.50E-03  0.41163
   1984.    5.040  1.95E-07  7.68E-05  1.59E-07  6.27E-05  0.00E+00  0.00E+00  3.54E-07  1.39E-04  8.50E-03  0.36188
   1986.    5.035  2.12E-07  8.36E-05  7.92E-08  3.13E-05  0.00E+00  0.00E+00  2.91E-07  1.15E-04  8.50E-03  0.18094
   1988.    5.030  1.87E-07  7.37E-05  1.24E-08  4.90E-06  0.00E+00  0.00E+00  1.99E-07  7.86E-05  8.50E-03  0.02843
   1990.    5.025  1.74E-07  6.89E-05  1.58E-09  6.27E-07  0.00E+00  0.00E+00  1.76E-07  6.95E-05  8.50E-03  0.00368
   1992.    5.020  1.35E-07  5.34E-05  8.33E-10  3.30E-07  0.00E+00  0.00E+00  1.35E-07  5.38E-05  8.50E-03  0.00194
   1994.    5.015  1.85E-07  7.34E-05  2.91E-08  1.16E-05  0.00E+00  0.00E+00  2.14E-07  8.50E-05  8.50E-03  0.06887
   1996.    5.010  2.18E-07  8.69E-05  8.61E-08  3.43E-05  0.00E+00  0.00E+00  3.04E-07  1.21E-04  8.50E-03  0.20438
   1998.    5.005  2.04E-07  8.15E-05  6.02E-08  2.40E-05  0.00E+00  0.00E+00  2.64E-07  1.06E-04  8.50E-03  0.14346
   2000.    5.000  1.81E-07  7.26E-05  1.04E-07  4.16E-05  0.00E+00  0.00E+00  2.85E-07  1.14E-04  8.50E-03  0.25076
  iv         2005
1                                             RADIANCE(WATTS/CM2-STER-XXX)
0  FREQ   WAVLEN    PATH THERMAL      SURFACE EMISSION    SURFACE REFLECTED     TOTAL RADIANCE   INTEGRAL    TOTAL
  (CM-1) (MICRN)    (CM-1)   (MICRN)    (CM-1)   (MICRN)    (CM-1)   (MICRN)    (CM-1)   (MICRN)    (CM-1)   TRANS

   2002.    4.995  1.48E-07  5.92E-05  2.04E-07  8.19E-05  0.00E+00  0.00E+00  3.52E-07  1.41E-04  8.50E-03  0.49543
   2004.    4.990  1.33E-07  5.36E-05  2.23E-07  8.97E-05  0.00E+00  0.00E+00  3.57E-07  1.43E-04  8.50E-03  0.54470
   2006.    4.985  1.70E-07  6.82E-05  1.44E-07  5.78E-05  0.00E+00  0.00E+00  3.13E-07  1.26E-04  8.50E-03  0.35242
   2008.    4.980  1.93E-07  7.76E-05  5.17E-08  2.08E-05  0.00E+00  0.00E+00  2.44E-07  9.85E-05  8.50E-03  0.12778
   2010.    4.975  1.76E-07  7.10E-05  1.08E-07  4.35E-05  0.00E+00  0.00E+00  2.84E-07  1.15E-04  8.50E-03  0.26917
   2012.    4.970  1.53E-07  6.18E-05  1.81E-07  7.32E-05  0.00E+00  0.00E+00  3.34E-07  1.35E-04  8.51E-03  0.45429
   2014.    4.965  1.72E-07  6.97E-05  1.27E-07  5.17E-05  0.00E+00  0.00E+00  2.99E-07  1.21E-04  8.51E-03  0.32134
   2016.    4.960  1.58E-07  6.41E-05  2.96E-08  1.20E-05  0.00E+00  0.00E+00  1.87E-07  7.61E-05  8.51E-03  0.07508
   2018.    4.955  1.38E-07  5.63E-05  8.87E-10  3.61E-07  0.00E+00  0.00E+00  1.39E-07  5.67E-05  8.51E-03  0.00229
   2020.    4.950  1.77E-07  7.24E-05  4.24E-08  1.73E-05  0.00E+00  0.00E+00  2.20E-07  8.97E-05  8.51E-03  0.11010
   2022.    4.946  1.85E-07  7.54E-05  8.23E-08  3.36E-05  0.00E+00  0.00E+00  2.67E-07  1.09E-04  8.51E-03  0.21392
   2024.    4.941  1.81E-07  7.42E-05  8.87E-08  3.63E-05  0.00E+00  0.00E+00  2.70E-07  1.11E-04  8.51E-03  0.23271
   2026.    4.936  1.68E-07  6.90E-05  9.66E-08  3.96E-05  0.00E+00  0.00E+00  2.65E-07  1.09E-04  8.51E-03  0.25471
   2028.    4.931  1.37E-07  5.62E-05  1.42E-07  5.86E-05  0.00E+00  0.00E+00  2.79E-07  1.15E-04  8.51E-03  0.37937
   2030.    4.926  9.57E-08  3.95E-05  2.34E-07  9.64E-05  0.00E+00  0.00E+00  3.30E-07  1.36E-04  8.51E-03  0.62619
   2032.    4.921  8.84E-08  3.65E-05  2.39E-07  9.85E-05  0.00E+00  0.00E+00  3.27E-07  1.35E-04  8.51E-03  0.64288
   2034.    4.916  1.16E-07  4.78E-05  1.89E-07  7.82E-05  0.00E+00  0.00E+00  3.05E-07  1.26E-04  8.51E-03  0.51318
   2036.    4.912  1.19E-07  4.93E-05  1.67E-07  6.92E-05  0.00E+00  0.00E+00  2.86E-07  1.19E-04  8.51E-03  0.45637
   2038.    4.907  1.40E-07  5.82E-05  1.14E-07  4.73E-05  0.00E+00  0.00E+00  2.54E-07  1.05E-04  8.51E-03  0.31335
   2040.    4.902  1.49E-07  6.21E-05  6.32E-08  2.63E-05  0.00E+00  0.00E+00  2.12E-07  8.84E-05  8.51E-03  0.17476
   2042.    4.897  1.56E-07  6.51E-05  1.51E-08  6.30E-06  0.00E+00  0.00E+00  1.71E-07  7.14E-05  8.51E-03  0.04217
   2044.    4.892  1.45E-07  6.07E-05  6.19E-08  2.59E-05  0.00E+00  0.00E+00  2.07E-07  8.66E-05  8.51E-03  0.17477
   2046.    4.888  1.31E-07  5.48E-05  1.07E-07  4.46E-05  0.00E+00  0.00E+00  2.38E-07  9.94E-05  8.51E-03  0.30223
   2048.    4.883  1.10E-07  4.60E-05  1.28E-07  5.38E-05  0.00E+00  0.00E+00  2.38E-07  9.98E-05  8.51E-03  0.36646
   2050.    4.878  8.69E-08  3.65E-05  1.55E-07  6.51E-05  0.00E+00  0.00E+00  2.42E-07  1.02E-04  8.51E-03  0.44534
   2052.    4.873  8.98E-08  3.78E-05  1.39E-07  5.85E-05  0.00E+00  0.00E+00  2.29E-07  9.63E-05  8.52E-03  0.40226
   2054.    4.869  9.00E-08  3.80E-05  1.34E-07  5.66E-05  0.00E+00  0.00E+00  2.24E-07  9.45E-05  8.52E-03  0.39124
   2056.    4.864  8.20E-08  3.46E-05  1.45E-07  6.12E-05  0.00E+00  0.00E+00  2.27E-07  9.59E-05  8.52E-03  0.42562
   2058.    4.859  9.22E-08  3.90E-05  1.19E-07  5.03E-05  0.00E+00  0.00E+00  2.11E-07  8.93E-05  8.52E-03  0.35087
   2060.    4.854  1.09E-07  4.64E-05  6.94E-08  2.95E-05  0.00E+00  0.00E+00  1.79E-07  7.59E-05  8.52E-03  0.20678
   2062.    4.850  1.11E-07  4.73E-05  6.91E-08  2.94E-05  0.00E+00  0.00E+00  1.80E-07  7.67E-05  8.52E-03  0.20747
   2064.    4.845  1.07E-07  4.57E-05  2.98E-08  1.27E-05  0.00E+00  0.00E+00  1.37E-07  5.84E-05  8.52E-03  0.08953
   2066.    4.840  1.07E-07  4.55E-05  3.63E-08  1.55E-05  0.00E+00  0.00E+00  1.43E-07  6.10E-05  8.52E-03  0.11108
   2068.    4.836  9.50E-08  4.06E-05  1.02E-07  4.35E-05  0.00E+00  0.00E+00  1.97E-07  8.42E-05  8.52E-03  0.31282
   2070.    4.831  7.44E-08  3.19E-05  1.39E-07  5.94E-05  0.00E+00  0.00E+00  2.13E-07  9.13E-05  8.52E-03  0.42885
   2072.    4.826  8.75E-08  3.76E-05  1.17E-07  5.03E-05  0.00E+00  0.00E+00  2.05E-07  8.79E-05  8.52E-03  0.36435
   2074.    4.822  1.05E-07  4.51E-05  8.85E-08  3.80E-05  0.00E+00  0.00E+00  1.93E-07  8.32E-05  8.52E-03  0.27736
   2076.    4.817  7.92E-08  3.41E-05  6.91E-08  2.98E-05  0.00E+00  0.00E+00  1.48E-07  6.39E-05  8.52E-03  0.21776
   2078.    4.812  6.45E-08  2.79E-05  3.38E-08  1.46E-05  0.00E+00  0.00E+00  9.83E-08  4.25E-05  8.52E-03  0.10753
   2080.    4.808  8.19E-08  3.54E-05  8.62E-08  3.73E-05  0.00E+00  0.00E+00  1.68E-07  7.27E-05  8.52E-03  0.27658
   2082.    4.803  7.61E-08  3.30E-05  1.28E-07  5.53E-05  0.00E+00  0.00E+00  2.04E-07  8.83E-05  8.52E-03  0.41196
   2084.    4.798  6.12E-08  2.66E-05  1.58E-07  6.84E-05  0.00E+00  0.00E+00  2.19E-07  9.50E-05  8.52E-03  0.51218
   2086.    4.794  7.74E-08  3.37E-05  1.31E-07  5.68E-05  0.00E+00  0.00E+00  2.08E-07  9.05E-05  8.52E-03  0.42723
   2088.    4.789  1.03E-07  4.47E-05  8.45E-08  3.68E-05  0.00E+00  0.00E+00  1.87E-07  8.16E-05  8.52E-03  0.27840
   2090.    4.785  1.09E-07  4.75E-05  5.63E-08  2.46E-05  0.00E+00  0.00E+00  1.65E-07  7.21E-05  8.52E-03  0.18694
   2092.    4.780  9.51E-08  4.16E-05  7.92E-08  3.47E-05  0.00E+00  0.00E+00  1.74E-07  7.63E-05  8.52E-03  0.26541
   2094.    4.776  7.40E-08  3.25E-05  1.09E-07  4.78E-05  0.00E+00  0.00E+00  1.83E-07  8.03E-05  8.52E-03  0.36789
   2096.    4.771  6.52E-08  2.86E-05  1.43E-07  6.28E-05  0.00E+00  0.00E+00  2.08E-07  9.14E-05  8.52E-03  0.48530
   2098.    4.766  6.18E-08  2.72E-05  1.50E-07  6.62E-05  0.00E+00  0.00E+00  2.12E-07  9.34E-05  8.52E-03  0.51404
   2100.    4.762  6.29E-08  2.77E-05  1.46E-07  6.44E-05  0.00E+00  0.00E+00  2.09E-07  9.21E-05  8.52E-03  0.50304
  iv         2105
1                                             RADIANCE(WATTS/CM2-STER-XXX)
0  FREQ   WAVLEN    PATH THERMAL      SURFACE EMISSION    SURFACE REFLECTED     TOTAL RADIANCE   INTEGRAL    TOTAL
  (CM-1) (MICRN)    (CM-1)   (MICRN)    (CM-1)   (MICRN)    (CM-1)   (MICRN)    (CM-1)   (MICRN)    (CM-1)   TRANS

   2102.    4.757  4.55E-08  2.01E-05  1.75E-07  7.75E-05  0.00E+00  0.00E+00  2.21E-07  9.76E-05  8.52E-03  0.60925
   2104.    4.753  4.10E-08  1.81E-05  1.80E-07  7.97E-05  0.00E+00  0.00E+00  2.21E-07  9.79E-05  8.53E-03  0.62928
   2106.    4.748  6.24E-08  2.77E-05  1.37E-07  6.06E-05  0.00E+00  0.00E+00  1.99E-07  8.83E-05  8.53E-03  0.48056
   2108.    4.744  5.76E-08  2.56E-05  1.40E-07  6.22E-05  0.00E+00  0.00E+00  1.98E-07  8.78E-05  8.53E-03  0.49679
   2110.    4.739  3.70E-08  1.65E-05  1.85E-07  8.22E-05  0.00E+00  0.00E+00  2.22E-07  9.87E-05  8.53E-03  0.66018
   2112.    4.735  4.68E-08  2.09E-05  1.86E-07  8.29E-05  0.00E+00  0.00E+00  2.33E-07  1.04E-04  8.53E-03  0.66783
   2114.    4.730  9.00E-08  4.02E-05  9.36E-08  4.18E-05  0.00E+00  0.00E+00  1.84E-07  8.20E-05  8.53E-03  0.33845
   2116.    4.726  8.34E-08  3.74E-05  8.96E-08  4.01E-05  0.00E+00  0.00E+00  1.73E-07  7.75E-05  8.53E-03  0.32777
   2118.    4.721  4.00E-08  1.80E-05  1.58E-07  7.08E-05  0.00E+00  0.00E+00  1.98E-07  8.87E-05  8.53E-03  0.58049
   2120.    4.717  4.03E-08  1.81E-05  1.49E-07  6.68E-05  0.00E+00  0.00E+00  1.89E-07  8.50E-05  8.53E-03  0.55061
   2122.    4.713  5.45E-08  2.45E-05  1.27E-07  5.70E-05  0.00E+00  0.00E+00  1.81E-07  8.15E-05  8.53E-03  0.47209
   2124.    4.708  5.86E-08  2.65E-05  1.20E-07  5.41E-05  0.00E+00  0.00E+00  1.79E-07  8.05E-05  8.53E-03  0.45057
   2126.    4.704  3.94E-08  1.78E-05  1.56E-07  7.04E-05  0.00E+00  0.00E+00  1.95E-07  8.82E-05  8.53E-03  0.59063
   2128.    4.699  3.17E-08  1.44E-05  1.66E-07  7.53E-05  0.00E+00  0.00E+00  1.98E-07  8.97E-05  8.53E-03  0.63376
   2130.    4.695  3.75E-08  1.70E-05  1.60E-07  7.25E-05  0.00E+00  0.00E+00  1.97E-07  8.95E-05  8.53E-03  0.61392
   2132.    4.690  2.41E-08  1.10E-05  2.06E-07  9.37E-05  0.00E+00  0.00E+00  2.30E-07  1.05E-04  8.53E-03  0.79839
   2134.    4.686  3.10E-08  1.41E-05  2.03E-07  9.26E-05  0.00E+00  0.00E+00  2.34E-07  1.07E-04  8.53E-03  0.79204
   2136.    4.682  8.07E-08  3.68E-05  1.12E-07  5.12E-05  0.00E+00  0.00E+00  1.93E-07  8.80E-05  8.53E-03  0.43954
   2138.    4.677  1.01E-07  4.61E-05  8.21E-08  3.75E-05  0.00E+00  0.00E+00  1.83E-07  8.37E-05  8.53E-03  0.32516
   2140.    4.673  6.70E-08  3.07E-05  1.47E-07  6.71E-05  0.00E+00  0.00E+00  2.14E-07  9.78E-05  8.53E-03  0.58489
   2142.    4.669  3.17E-08  1.45E-05  2.04E-07  9.35E-05  0.00E+00  0.00E+00  2.35E-07  1.08E-04  8.53E-03  0.81779
   2144.    4.664  4.45E-08  2.05E-05  1.77E-07  8.12E-05  0.00E+00  0.00E+00  2.21E-07  1.02E-04  8.53E-03  0.71366
   2146.    4.660  6.78E-08  3.12E-05  1.39E-07  6.39E-05  0.00E+00  0.00E+00  2.07E-07  9.51E-05  8.53E-03  0.56514
   2148.    4.655  5.17E-08  2.39E-05  1.66E-07  7.67E-05  0.00E+00  0.00E+00  2.18E-07  1.01E-04  8.53E-03  0.68223
   2150.    4.651  3.05E-08  1.41E-05  1.97E-07  9.12E-05  0.00E+00  0.00E+00  2.28E-07  1.05E-04  8.53E-03  0.81503
   2152.    4.647  4.05E-08  1.87E-05  1.76E-07  8.17E-05  0.00E+00  0.00E+00  2.17E-07  1.00E-04  8.53E-03  0.73448
   2154.    4.643  3.91E-08  1.81E-05  1.76E-07  8.18E-05  0.00E+00  0.00E+00  2.16E-07  1.00E-04  8.54E-03  0.74007
   2156.    4.638  3.49E-08  1.62E-05  1.83E-07  8.53E-05  0.00E+00  0.00E+00  2.18E-07  1.02E-04  8.54E-03  0.77491
   2158.    4.634  2.93E-08  1.37E-05  1.89E-07  8.81E-05  0.00E+00  0.00E+00  2.19E-07  1.02E-04  8.54E-03  0.80568
   2160.    4.630  3.60E-08  1.68E-05  1.77E-07  8.25E-05  0.00E+00  0.00E+00  2.13E-07  9.93E-05  8.54E-03  0.75753
   2162.    4.625  6.35E-08  2.97E-05  1.28E-07  5.99E-05  0.00E+00  0.00E+00  1.92E-07  8.96E-05  8.54E-03  0.55294
   2164.    4.621  4.11E-08  1.93E-05  1.63E-07  7.64E-05  0.00E+00  0.00E+00  2.04E-07  9.56E-05  8.54E-03  0.71029
   2166.    4.617  2.10E-08  9.85E-06  1.94E-07  9.11E-05  0.00E+00  0.00E+00  2.15E-07  1.01E-04  8.54E-03  0.85116
   2168.    4.613  1.79E-08  8.43E-06  1.97E-07  9.25E-05  0.00E+00  0.00E+00  2.15E-07  1.01E-04  8.54E-03  0.86853
   2170.    4.608  2.58E-08  1.22E-05  1.81E-07  8.54E-05  0.00E+00  0.00E+00  2.07E-07  9.76E-05  8.54E-03  0.80662
   2172.    4.604  3.16E-08  1.49E-05  1.72E-07  8.09E-05  0.00E+00  0.00E+00  2.03E-07  9.58E-05  8.54E-03  0.76872
   2174.    4.600  2.10E-08  9.91E-06  1.87E-07  8.83E-05  0.00E+00  0.00E+00  2.08E-07  9.82E-05  8.54E-03  0.84296
   2176.    4.596  1.80E-08  8.50E-06  1.89E-07  8.95E-05  0.00E+00  0.00E+00  2.07E-07  9.80E-05  8.54E-03  0.85965
   2178.    4.591  1.75E-08  8.29E-06  1.88E-07  8.91E-05  0.00E+00  0.00E+00  2.05E-07  9.74E-05  8.54E-03  0.86060
   2180.    4.587  2.86E-08  1.36E-05  1.69E-07  8.01E-05  0.00E+00  0.00E+00  1.97E-07  9.37E-05  8.54E-03  0.77771
   2182.    4.583  2.82E-08  1.34E-05  1.67E-07  7.97E-05  0.00E+00  0.00E+00  1.96E-07  9.31E-05  8.54E-03  0.77840
   2184.    4.579  2.68E-08  1.28E-05  1.69E-07  8.06E-05  0.00E+00  0.00E+00  1.96E-07  9.33E-05  8.54E-03  0.79060
   2186.    4.575  4.19E-08  2.00E-05  1.44E-07  6.86E-05  0.00E+00  0.00E+00  1.85E-07  8.86E-05  8.54E-03  0.67734
   2188.    4.570  3.62E-08  1.73E-05  1.50E-07  7.20E-05  0.00E+00  0.00E+00  1.87E-07  8.93E-05  8.54E-03  0.71507
   2190.    4.566  2.27E-08  1.09E-05  1.70E-07  8.16E-05  0.00E+00  0.00E+00  1.93E-07  9.25E-05  8.54E-03  0.81452
   2192.    4.562  2.42E-08  1.16E-05  1.66E-07  7.98E-05  0.00E+00  0.00E+00  1.90E-07  9.14E-05  8.54E-03  0.80058
   2194.    4.558  2.60E-08  1.25E-05  1.61E-07  7.76E-05  0.00E+00  0.00E+00  1.87E-07  9.01E-05  8.54E-03  0.78293
   2196.    4.554  1.90E-08  9.18E-06  1.70E-07  8.18E-05  0.00E+00  0.00E+00  1.89E-07  9.10E-05  8.54E-03  0.83024
   2198.    4.550  2.42E-08  1.17E-05  1.60E-07  7.74E-05  0.00E+00  0.00E+00  1.84E-07  8.91E-05  8.54E-03  0.78958
   2200.    4.545  3.11E-08  1.50E-05  1.47E-07  7.13E-05  0.00E+00  0.00E+00  1.78E-07  8.64E-05  8.54E-03  0.73196
0INTEGRATED ABSORPTION FROM    2 TO 2200 CM-1 =   1747.53 CM-1
 AVERAGE TRANSMITTANCE =0.2049

0INTEGRATED RADIANCE =  8.544E-03 WATTS CM-2 STER-1
 MINIMUM RADIANCE    =  1.168E-09 WATTS CM-2 STER-1 (CM-1)-1 AT        2.0 CM-1
 MAXIMUM RADIANCE    =  1.176E-05 WATTS CM-2 STER-1 (CM-1)-1 AT      560.0 CM-1
 BOUNDARY TEMPERATURE =     287.20 K
 BOUNDARY EMISSIVITY =       0.971
0 CARD 5 *****    0


