*****  MODTRAN3 Version 1.3  12/1/95  *****
0 CARD 1  *****T   1    3    1    0    0    0    0    0    0    0    0    0   -1   0.000  -1.00
 co2mx co2rat ch4rat h2orat t_o3rat s_o3rat scalefreon    800.00000       2.4242425       1.0000000       1.0000000       1.0000000       1.0000000       1.0000000    
0 CARD 2  *****    0    0    0    0    0    0     0.000     0.000     0.000     0.000     0.000
0 CARD 3  *****    70.000     0.000   180.000     0.000     0.000     0.000    0
0 CARD 4  *****         2      2200         2         3
0 PROGRAM WILL COMPUTE RADIANCE                
0 ATMOSPHERIC MODEL
          TEMPERATURE =    1     TROPICAL MODEL      
          WATER VAPOR =    1     TROPICAL MODEL      
          OZONE       =    1     TROPICAL MODEL      
                      M4 =     1 M5 =     1 M6 =     1 MDEF =     1
0 SLANT PATH TO SPACE
          H1    =     70.000 KM
          HMIN  =      0.000 KM
          ANGLE =    180.000 DEG
0 FREQUENCY RANGE
             IV1 =         2 CM-1  (   5000.00 MICROMETERS)
             IV2 =      2200 CM-1  (      4.55 MICROMETERS)
             IDV =         2 CM-1
           IFWHM =         3 CM-1
1
  ATMOSPHERIC PROFILES

   I     Z       P       T        N2       CNTMSLF MOL SCAT     N-1     O3 (UV)  O2 (UV)
        (KM)    (MB)    (K)            (MOL/CM2 KM)   (-)       (-)  (ATM CM/KM) (ATM CM/KM)

   1     0.00 1013.000  300.9  7.561E-01 1.845E+21 9.075E-01 2.598E-04 2.602E-03 3.323E+04
   2     1.00  904.000  294.9  6.269E-01 8.692E+20 8.263E-01 2.368E-04 2.601E-03 2.910E+04
   3     2.00  805.000  288.9  5.180E-01 4.476E+20 7.511E-01 2.155E-04 2.509E-03 2.547E+04
   4     3.00  715.000  284.9  4.202E-01 1.146E+20 6.765E-01 1.943E-04 2.369E-03 2.206E+04
   5     4.00  633.000  278.2  3.454E-01 2.530E+19 6.134E-01 1.763E-04 2.183E-03 1.933E+04
   6     5.00  559.000  271.5  2.828E-01 1.186E+19 5.550E-01 1.595E-04 2.089E-03 1.693E+04
   7     6.00  492.000  264.8  2.303E-01 3.839E+18 5.009E-01 1.440E-04 1.997E-03 1.481E+04
   8     7.00  432.000  258.2  1.868E-01 1.183E+18 4.510E-01 1.297E-04 1.903E-03 1.295E+04
   9     8.00  378.000  251.5  1.507E-01 3.384E+17 4.052E-01 1.165E-04 1.810E-03 1.131E+04
  10     9.00  329.000  244.8  1.205E-01 7.875E+16 3.623E-01 1.042E-04 1.810E-03 9.842E+03
  11    10.00  286.000  238.2  9.617E-02 1.384E+16 3.237E-01 9.308E-05 1.810E-03 8.576E+03
  12    11.00  247.000  231.3  7.608E-02 1.620E+15 2.879E-01 8.279E-05 1.902E-03 7.449E+03
  13    12.00  213.000  224.8  5.989E-02 2.043E+14 2.554E-01 7.346E-05 1.995E-03 6.466E+03
  14    13.00  182.000  218.2  4.641E-02 1.867E+13 2.248E-01 6.467E-05 2.087E-03 5.572E+03
  15    14.00  156.000  211.5  3.629E-02 5.859E+12 1.988E-01 5.718E-05 2.086E-03 4.838E+03
  16    15.00  132.000  204.9  2.769E-02 1.882E+12 1.737E-01 4.994E-05 2.180E-03 4.150E+03
  17    16.00  111.000  198.2  2.092E-02 8.164E+11 1.510E-01 4.342E-05 2.178E-03 3.548E+03
  18    17.00   93.700  196.0  1.525E-02 5.598E+11 1.289E-01 3.706E-05 3.220E-03 2.979E+03
  19    18.00   78.900  200.0  1.038E-02 3.385E+11 1.063E-01 3.058E-05 5.314E-03 2.417E+03
  20    19.00   66.600  203.9  7.117E-03 2.050E+11 8.805E-02 2.532E-05 8.359E-03 1.973E+03
  21    20.00   56.500  207.9  4.927E-03 1.403E+11 7.326E-02 2.107E-05 1.025E-02 1.623E+03
  22    21.00   48.000  211.9  3.423E-03 1.002E+11 6.106E-02 1.756E-05 1.098E-02 1.340E+03
  23    22.00   40.900  215.8  2.396E-03 7.755E+10 5.109E-02 1.469E-05 1.225E-02 1.112E+03
  24    23.00   35.000  218.2  1.716E-03 5.924E+10 4.324E-02 1.244E-05 1.469E-02 9.355E+02
  25    24.00   30.000  220.4  1.236E-03 5.168E+10 3.669E-02 1.055E-05 1.577E-02 7.897E+02
  26    25.00   25.700  222.6  8.892E-04 3.816E+10 3.112E-02 8.951E-06 1.679E-02 6.668E+02
  27    30.00   12.200  233.5  1.821E-04 1.157E+10 1.408E-02 4.051E-06 1.309E-02 2.976E+02
  28    35.00    6.000  244.3  4.024E-05 3.316E+09 6.621E-03 1.904E-06 6.418E-03 1.390E+02
  29    40.00    3.050  255.2  9.529E-06 9.863E+08 3.222E-03 9.266E-07 2.415E-03 6.747E+01
  30    45.00    1.590  266.0  2.384E-06 2.920E+08 1.611E-03 4.634E-07 7.246E-04 3.370E+01
  31    50.00    0.854  271.4  6.605E-07 8.905E+07 8.482E-04 2.440E-07 2.373E-04 1.773E+01
  32    70.00    0.058  220.1  4.633E-09 3.833E+05 7.104E-05 2.043E-08 2.130E-06 1.484E+00
  33   100.00    0.000  191.9  1.513E-13 1.072E-01 4.060E-07 1.168E-10 1.623E-08 6.491E-03
1
  ATMOSPHERIC PROFILES

   I     Z       P       T      CNTMFRN     HNO3    AEROSOL 1 AEROSOL 2 AEROSOL 3 AEROSOL 4 AER1*RH   CIRRUS         RH
        (KM)    (MB)    (K)   MOL/CM2 KM ATM CM/KM   (-)       (-)       (-)       (-)       (-)       (-)      (PERCNT)

   1     0.00 1013.000  300.9  6.468E+22 0.000E+00 0.000E+00 0.000E+00 0.000E+00 0.000E+00 0.000E+00 0.000E+00 7.532E+01
   2     1.00  904.000  294.9  4.070E+22 0.000E+00 0.000E+00 0.000E+00 0.000E+00 0.000E+00 0.000E+00 0.000E+00 7.254E+01
   3     2.00  805.000  288.9  2.667E+22 0.000E+00 0.000E+00 0.000E+00 0.000E+00 0.000E+00 0.000E+00 0.000E+00 7.423E+01
   4     3.00  715.000  284.9  1.224E+22 0.000E+00 0.000E+00 0.000E+00 0.000E+00 0.000E+00 0.000E+00 0.000E+00 4.805E+01
   5     4.00  633.000  278.2  5.239E+21 0.000E+00 0.000E+00 0.000E+00 0.000E+00 0.000E+00 0.000E+00 0.000E+00 3.474E+01
   6     5.00  559.000  271.5  3.249E+21 0.000E+00 0.000E+00 0.000E+00 0.000E+00 0.000E+00 0.000E+00 0.000E+00 3.750E+01
   7     6.00  492.000  264.8  1.671E+21 0.000E+00 0.000E+00 0.000E+00 0.000E+00 0.000E+00 0.000E+00 0.000E+00 3.457E+01
   8     7.00  432.000  258.2  8.357E+20 0.000E+00 0.000E+00 0.000E+00 0.000E+00 0.000E+00 0.000E+00 0.000E+00 3.174E+01
   9     8.00  378.000  251.5  4.018E+20 0.000E+00 0.000E+00 0.000E+00 0.000E+00 0.000E+00 0.000E+00 0.000E+00 2.921E+01
  10     9.00  329.000  244.8  1.734E+20 0.000E+00 0.000E+00 0.000E+00 0.000E+00 0.000E+00 0.000E+00 0.000E+00 2.510E+01
  11    10.00  286.000  238.2  6.496E+19 0.000E+00 0.000E+00 0.000E+00 0.000E+00 0.000E+00 0.000E+00 0.000E+00 1.928E+01
  12    11.00  247.000  231.3  1.977E+19 0.000E+00 0.000E+00 0.000E+00 0.000E+00 0.000E+00 0.000E+00 0.000E+00 1.298E+01
  13    12.00  213.000  224.8  6.230E+18 0.000E+00 0.000E+00 0.000E+00 0.000E+00 0.000E+00 0.000E+00 0.000E+00 9.113E+00
  14    13.00  182.000  218.2  1.658E+18 0.000E+00 0.000E+00 0.000E+00 0.000E+00 0.000E+00 0.000E+00 0.000E+00 5.779E+00
  15    14.00  156.000  211.5  8.212E+17 0.000E+00 0.000E+00 0.000E+00 0.000E+00 0.000E+00 0.000E+00 0.000E+00 7.263E+00
  16    15.00  132.000  204.9  4.065E+17 0.000E+00 0.000E+00 0.000E+00 0.000E+00 0.000E+00 0.000E+00 0.000E+00 9.697E+00
  17    16.00  111.000  198.2  2.327E+17 0.000E+00 0.000E+00 0.000E+00 0.000E+00 0.000E+00 0.000E+00 0.000E+00 1.633E+01
  18    17.00   93.700  196.0  1.645E+17 0.000E+00 0.000E+00 0.000E+00 0.000E+00 0.000E+00 0.000E+00 0.000E+00 1.871E+01
  19    18.00   78.900  200.0  1.056E+17 0.000E+00 0.000E+00 0.000E+00 0.000E+00 0.000E+00 0.000E+00 0.000E+00 8.111E+00
  20    19.00   66.600  203.9  6.802E+16 0.000E+00 0.000E+00 0.000E+00 0.000E+00 0.000E+00 0.000E+00 0.000E+00 3.665E+00
  21    20.00   56.500  207.9  4.683E+16 0.000E+00 0.000E+00 0.000E+00 0.000E+00 0.000E+00 0.000E+00 0.000E+00 1.779E+00
  22    21.00   48.000  211.9  3.298E+16 0.000E+00 0.000E+00 0.000E+00 0.000E+00 0.000E+00 0.000E+00 0.000E+00 9.036E-01
  23    22.00   40.900  215.8  2.428E+16 0.000E+00 0.000E+00 0.000E+00 0.000E+00 0.000E+00 0.000E+00 0.000E+00 4.941E-01
  24    23.00   35.000  218.2  1.796E+16 0.000E+00 0.000E+00 0.000E+00 0.000E+00 0.000E+00 0.000E+00 0.000E+00 3.256E-01
  25    24.00   30.000  220.4  1.423E+16 0.000E+00 0.000E+00 0.000E+00 0.000E+00 0.000E+00 0.000E+00 0.000E+00 2.361E-01
  26    25.00   25.700  222.6  1.037E+16 0.000E+00 0.000E+00 0.000E+00 0.000E+00 0.000E+00 0.000E+00 0.000E+00 1.585E-01
  27    30.00   12.200  233.5  2.585E+15 0.000E+00 0.000E+00 0.000E+00 0.000E+00 0.000E+00 0.000E+00 0.000E+00 2.781E-02
  28    35.00    6.000  244.3  6.505E+14 0.000E+00 0.000E+00 0.000E+00 0.000E+00 0.000E+00 0.000E+00 0.000E+00 5.386E-03
  29    40.00    3.050  255.2  1.726E+14 0.000E+00 0.000E+00 0.000E+00 0.000E+00 0.000E+00 0.000E+00 0.000E+00 1.164E-03
  30    45.00    1.590  266.0  4.698E+13 0.000E+00 0.000E+00 0.000E+00 0.000E+00 0.000E+00 0.000E+00 0.000E+00 2.759E-04
  31    50.00    0.854  271.4  1.366E+13 0.000E+00 0.000E+00 0.000E+00 0.000E+00 0.000E+00 0.000E+00 0.000E+00 1.035E-04
  32    70.00    0.058  220.1  7.504E+10 0.000E+00 0.000E+00 0.000E+00 0.000E+00 0.000E+00 0.000E+00 0.000E+00 6.654E-04
  33   100.00    0.000  191.9  2.268E+05 0.000E+00 0.000E+00 0.000E+00 0.000E+00 0.000E+00 0.000E+00 0.000E+00 1.535E-05
1
  ATMOSPHERIC PROFILES

   I      Z       P       T      H2O      O3       CO2      CO       CH4      N2O      O2       NH3      NO       NO2      SO2
         (KM)    (MB)    (K)  (                                    MBAR                                                       )
   1     0.00 1013.000  300.9  2.02E+01 2.87E-02 8.00E+02 0.00E+00 1.70E+00 0.00E+00 2.09E+05 0.00E+00 0.00E+00 0.00E+00 0.00E+00
   2     1.00  904.000  294.9  1.39E+01 3.15E-02 8.00E+02 0.00E+00 1.70E+00 0.00E+00 2.09E+05 0.00E+00 0.00E+00 0.00E+00 0.00E+00
   3     2.00  805.000  288.9  9.97E+00 3.34E-02 8.00E+02 0.00E+00 1.70E+00 0.00E+00 2.09E+05 0.00E+00 0.00E+00 0.00E+00 0.00E+00
   4     3.00  715.000  284.9  5.04E+00 3.50E-02 8.00E+02 0.00E+00 1.70E+00 0.00E+00 2.09E+05 0.00E+00 0.00E+00 0.00E+00 0.00E+00
   5     4.00  633.000  278.2  2.37E+00 3.56E-02 8.00E+02 0.00E+00 1.70E+00 0.00E+00 2.09E+05 0.00E+00 0.00E+00 0.00E+00 0.00E+00
   6     5.00  559.000  271.5  1.62E+00 3.77E-02 8.00E+02 0.00E+00 1.70E+00 0.00E+00 2.09E+05 0.00E+00 0.00E+00 0.00E+00 0.00E+00
   7     6.00  492.000  264.8  9.23E-01 3.99E-02 8.00E+02 0.00E+00 1.70E+00 0.00E+00 2.09E+05 0.00E+00 0.00E+00 0.00E+00 0.00E+00
   8     7.00  432.000  258.2  5.12E-01 4.22E-02 8.00E+02 0.00E+00 1.70E+00 0.00E+00 2.09E+05 0.00E+00 0.00E+00 0.00E+00 0.00E+00
   9     8.00  378.000  251.5  2.74E-01 4.47E-02 8.00E+02 0.00E+00 1.70E+00 0.00E+00 2.09E+05 0.00E+00 0.00E+00 0.00E+00 0.00E+00
  10     9.00  329.000  244.8  1.32E-01 5.00E-02 8.00E+02 0.00E+00 1.69E+00 0.00E+00 2.09E+05 0.00E+00 0.00E+00 0.00E+00 0.00E+00
  11    10.00  286.000  238.2  5.54E-02 5.60E-02 8.00E+02 0.00E+00 1.68E+00 0.00E+00 2.09E+05 0.00E+00 0.00E+00 0.00E+00 0.00E+00
  12    11.00  247.000  231.3  1.90E-02 6.61E-02 8.00E+02 0.00E+00 1.67E+00 0.00E+00 2.09E+05 0.00E+00 0.00E+00 0.00E+00 0.00E+00
  13    12.00  213.000  224.8  6.73E-03 7.81E-02 8.00E+02 0.00E+00 1.66E+00 0.00E+00 2.09E+05 0.00E+00 0.00E+00 0.00E+00 0.00E+00
  14    13.00  182.000  218.2  2.04E-03 9.29E-02 8.00E+02 0.00E+00 1.64E+00 0.00E+00 2.09E+05 0.00E+00 0.00E+00 0.00E+00 0.00E+00
  15    14.00  156.000  211.5  1.14E-03 1.05E-01 8.00E+02 0.00E+00 1.63E+00 0.00E+00 2.09E+05 0.00E+00 0.00E+00 0.00E+00 0.00E+00
  16    15.00  132.000  204.9  6.46E-04 1.26E-01 8.00E+02 0.00E+00 1.61E+00 0.00E+00 2.09E+05 0.00E+00 0.00E+00 0.00E+00 0.00E+00
  17    16.00  111.000  198.2  4.26E-04 1.44E-01 8.00E+02 0.00E+00 1.58E+00 0.00E+00 2.09E+05 0.00E+00 0.00E+00 0.00E+00 0.00E+00
  18    17.00   93.700  196.0  3.52E-04 2.50E-01 8.00E+02 0.00E+00 1.55E+00 0.00E+00 2.09E+05 0.00E+00 0.00E+00 0.00E+00 0.00E+00
  19    18.00   78.900  200.0  2.74E-04 5.00E-01 8.00E+02 0.00E+00 1.52E+00 0.00E+00 2.09E+05 0.00E+00 0.00E+00 0.00E+00 0.00E+00
  20    19.00   66.600  203.9  2.13E-04 9.50E-01 8.00E+02 0.00E+00 1.48E+00 0.00E+00 2.09E+05 0.00E+00 0.00E+00 0.00E+00 0.00E+00
  21    20.00   56.500  207.9  1.76E-04 1.40E+00 8.00E+02 0.00E+00 1.42E+00 0.00E+00 2.09E+05 0.00E+00 0.00E+00 0.00E+00 0.00E+00
  22    21.00   48.000  211.9  1.49E-04 1.80E+00 8.00E+02 0.00E+00 1.36E+00 0.00E+00 2.09E+05 0.00E+00 0.00E+00 0.00E+00 0.00E+00
  23    22.00   40.900  215.8  1.31E-04 2.40E+00 8.00E+02 0.00E+00 1.27E+00 0.00E+00 2.09E+05 0.00E+00 0.00E+00 0.00E+00 0.00E+00
  24    23.00   35.000  218.2  1.15E-04 3.40E+00 8.00E+02 0.00E+00 1.19E+00 0.00E+00 2.09E+05 0.00E+00 0.00E+00 0.00E+00 0.00E+00
  25    24.00   30.000  220.4  1.07E-04 4.30E+00 8.00E+02 0.00E+00 1.12E+00 0.00E+00 2.09E+05 0.00E+00 0.00E+00 0.00E+00 0.00E+00
  26    25.00   25.700  222.6  9.20E-05 5.40E+00 8.00E+02 0.00E+00 1.05E+00 0.00E+00 2.09E+05 0.00E+00 0.00E+00 0.00E+00 0.00E+00
  27    30.00   12.200  233.5  5.07E-05 9.30E+00 8.00E+02 0.00E+00 9.14E-01 0.00E+00 2.09E+05 0.00E+00 0.00E+00 0.00E+00 0.00E+00
  28    35.00    6.000  244.3  2.71E-05 9.70E+00 8.00E+02 0.00E+00 7.46E-01 0.00E+00 2.09E+05 0.00E+00 0.00E+00 0.00E+00 0.00E+00
  29    40.00    3.050  255.2  1.48E-05 7.50E+00 8.00E+02 0.00E+00 5.64E-01 0.00E+00 2.09E+05 0.00E+00 0.00E+00 0.00E+00 0.00E+00
  30    45.00    1.590  266.0  8.05E-06 4.50E+00 8.00E+02 0.00E+00 3.63E-01 0.00E+00 2.09E+05 0.00E+00 0.00E+00 0.00E+00 0.00E+00
  31    50.00    0.854  271.4  4.45E-06 2.80E+00 8.00E+02 0.00E+00 2.10E-01 0.00E+00 2.09E+05 0.00E+00 0.00E+00 0.00E+00 0.00E+00
  32    70.00    0.058  220.1  2.92E-07 3.00E-01 8.00E+02 0.00E+00 1.50E-01 0.00E+00 2.09E+05 0.00E+00 0.00E+00 0.00E+00 0.00E+00
  33   100.00    0.000  191.9  1.54E-10 4.00E-01 4.73E+02 0.00E+00 1.20E-01 0.00E+00 1.60E+05 0.00E+00 0.00E+00 0.00E+00 0.00E+00
1
  ATMOSPHERIC PROFILES

   I      Z       P       T     CFC-11   CFC-12   CFC-13   CFC-14   CFC-22   CFC-113  CFC-114  CFC-115  CLONO2    HNO4    CHCL2F 
                                 CCL4     N2O5  
         (KM)    (MB)    (K)  (                                 ATM CM/KM                                                     )
   1     0.00 1013.000  300.9  1.27E-05 2.18E-05 9.07E-14 9.07E-14 5.44E-06 1.72E-06 1.09E-06 9.07E-14 5.21E-07 3.94E-08 9.07E-14
                               1.18E-05 2.19E-11
   2     1.00  904.000  294.9  1.16E-05 1.98E-05 8.26E-14 8.26E-14 4.95E-06 1.57E-06 9.91E-07 8.26E-14 4.23E-07 1.76E-07 8.26E-14
                               1.07E-05 7.88E-11
   3     2.00  805.000  288.9  1.05E-05 1.80E-05 7.51E-14 7.51E-14 4.50E-06 1.43E-06 9.01E-07 7.51E-14 3.38E-07 2.88E-07 7.51E-14
                               9.76E-06 1.25E-10
   4     3.00  715.000  284.9  9.46E-06 1.62E-05 6.76E-14 6.76E-14 4.05E-06 1.28E-06 8.11E-07 6.76E-14 2.63E-07 3.74E-07 6.76E-14
                               8.79E-06 1.61E-10
   5     4.00  633.000  278.2  8.58E-06 1.47E-05 6.13E-14 6.13E-14 3.67E-06 1.16E-06 7.36E-07 6.13E-14 2.00E-07 4.44E-07 6.13E-14
                               7.97E-06 1.89E-10
   6     5.00  559.000  271.5  7.77E-06 1.33E-05 5.55E-14 5.55E-14 3.32E-06 1.05E-06 6.66E-07 5.55E-14 1.53E-07 1.01E-06 5.55E-14
                               7.20E-06 2.00E-10
   7     6.00  492.000  264.8  7.01E-06 1.20E-05 5.01E-14 5.01E-14 2.99E-06 9.51E-07 6.01E-07 5.01E-14 1.13E-07 1.46E-06 5.01E-14
                               6.48E-06 2.06E-10
   8     7.00  432.000  258.2  6.31E-06 1.08E-05 4.51E-14 4.51E-14 2.69E-06 8.56E-07 5.41E-07 4.51E-14 7.87E-08 1.80E-06 4.51E-14
                               5.83E-06 2.09E-10
   9     8.00  378.000  251.5  5.67E-06 9.72E-06 4.05E-14 4.05E-14 2.42E-06 7.69E-07 4.86E-07 4.05E-14 5.02E-08 2.06E-06 4.05E-14
                               5.22E-06 2.09E-10
  10     9.00  329.000  244.8  5.06E-06 8.68E-06 3.62E-14 3.62E-14 2.16E-06 6.87E-07 4.34E-07 3.62E-14 4.37E-08 1.78E-06 3.62E-14
                               4.67E-06 2.09E-10
  11    10.00  286.000  238.2  4.51E-06 7.75E-06 3.23E-14 3.23E-14 1.93E-06 6.13E-07 3.88E-07 3.23E-14 3.80E-08 1.53E-06 3.23E-14
                               4.17E-06 2.06E-10
  12    11.00  247.000  231.3  4.01E-06 6.88E-06 2.88E-14 2.88E-14 1.71E-06 5.45E-07 3.45E-07 2.88E-14 3.29E-08 1.31E-06 2.88E-14
                               3.71E-06 2.00E-10
  13    12.00  213.000  224.8  3.55E-06 6.10E-06 2.55E-14 2.55E-14 1.52E-06 4.82E-07 3.06E-07 2.55E-14 2.83E-08 1.12E-06 2.55E-14
                               3.29E-06 1.93E-10
  14    13.00  182.000  218.2  3.03E-06 5.29E-06 2.25E-14 2.25E-14 1.32E-06 4.17E-07 2.67E-07 2.25E-14 1.80E-07 1.27E-06 2.25E-14
                               2.81E-06 9.90E-09
  15    14.00  156.000  211.5  2.60E-06 4.61E-06 1.99E-14 1.99E-14 1.16E-06 3.62E-07 2.33E-07 1.99E-14 2.96E-07 1.38E-06 1.99E-14
                               2.40E-06 1.74E-08
  16    15.00  132.000  204.9  2.20E-06 3.97E-06 1.74E-14 1.74E-14 1.00E-06 3.10E-07 2.02E-07 1.74E-14 3.78E-07 1.43E-06 1.74E-14
                               2.03E-06 2.27E-08
  17    16.00  111.000  198.2  1.86E-06 3.39E-06 1.51E-14 1.51E-14 8.63E-07 2.64E-07 1.73E-07 1.51E-14 4.33E-07 1.43E-06 1.51E-14
                               1.70E-06 2.63E-08
  18    17.00   93.700  196.0  1.45E-06 2.77E-06 1.29E-14 1.29E-14 7.16E-07 2.13E-07 1.44E-07 1.29E-14 1.31E-06 1.84E-06 1.29E-14
                               1.31E-06 1.13E-07
  19    18.00   78.900  200.0  1.08E-06 2.17E-06 1.06E-14 1.06E-14 5.74E-07 1.65E-07 1.15E-07 1.06E-14 1.85E-06 2.02E-06 1.06E-14
                               9.63E-07 1.68E-07
  20    19.00   66.600  203.9  8.00E-07 1.71E-06 8.80E-15 8.80E-15 4.62E-07 1.28E-07 9.27E-08 8.80E-15 2.18E-06 2.09E-06 8.80E-15
                               6.99E-07 2.01E-07
  21    20.00   56.500  207.9  5.87E-07 1.35E-06 7.32E-15 7.32E-15 3.73E-07 9.96E-08 7.47E-08 7.32E-15 2.34E-06 2.09E-06 7.32E-15
                               4.99E-07 2.19E-07
  22    21.00   48.000  211.9  4.19E-07 1.04E-06 6.10E-15 6.10E-15 2.99E-07 7.55E-08 5.95E-08 6.10E-15 2.81E-06 2.15E-06 6.10E-15
                               3.49E-07 2.53E-07
  23    22.00   40.900  215.8  2.92E-07 8.07E-07 5.11E-15 5.11E-15 2.40E-07 5.70E-08 4.75E-08 5.11E-15 3.06E-06 2.14E-06 5.11E-15
                               2.35E-07 2.71E-07
  24    23.00   35.000  218.2  1.97E-07 6.27E-07 4.32E-15 4.32E-15 1.94E-07 4.29E-08 3.83E-08 4.32E-15 3.20E-06 2.10E-06 4.32E-15
                               1.51E-07 2.79E-07
  25    24.00   30.000  220.4  1.25E-07 4.84E-07 3.67E-15 3.67E-15 1.58E-07 3.19E-08 3.09E-08 3.67E-15 3.23E-06 2.02E-06 3.67E-15
                               8.80E-08 2.79E-07
  26    25.00   25.700  222.6  8.48E-08 3.69E-07 3.11E-15 3.11E-15 1.27E-07 2.36E-08 2.47E-08 3.11E-15 3.02E-06 1.81E-06 3.11E-15
                               5.86E-08 2.40E-07
  27    30.00   12.200  233.5  5.49E-09 8.28E-08 1.41E-15 1.41E-15 4.26E-08 4.10E-09 7.93E-09 1.41E-15 1.60E-06 7.18E-07 1.41E-15
                               2.47E-09 7.77E-08
  28    35.00    6.000  244.3  1.31E-10 1.41E-08 6.62E-16 6.62E-16 1.37E-08 4.74E-10 2.42E-09 6.62E-16 3.47E-07 9.72E-08 6.62E-16
                               2.62E-11 7.16E-09
  29    40.00    3.050  255.2  5.96E-13 1.96E-09 3.22E-16 3.22E-16 4.48E-09 3.96E-11 7.47E-10 3.22E-16 1.37E-08 3.21E-09 3.22E-16
                               1.27E-14 6.86E-11
  30    45.00    1.590  266.0  1.48E-14 3.43E-10 1.61E-16 1.61E-16 1.67E-09 5.18E-12 2.61E-10 1.61E-16 2.71E-10 1.41E-10 1.61E-16
                               8.97E-17 6.34E-13
  31    50.00    0.854  271.4  5.06E-16 7.22E-11 8.48E-17 8.48E-17 7.44E-10 8.40E-13 1.06E-10 8.48E-17 3.96E-12 6.47E-12 8.48E-17
                               9.26E-19 5.33E-15
  32    70.00    0.058  220.1  3.61E-21 2.77E-13 7.10E-18 7.10E-18 5.10E-11 1.25E-15 4.16E-12 7.10E-18 5.14E-19 2.28E-16 7.10E-18
                               7.01E-26 5.82E-23
  33   100.00    0.000  191.9  1.26E-30 1.01E-18 4.06E-20 4.06E-20 7.26E-14 5.31E-22 8.64E-16 4.06E-20 3.28E-35 1.35E-31 4.06E-20
                               2.07E-38 0.00E+00


 CASE 3A: GIVEN H1,H2=SPACE,ANGLE



 TANGENT PATH WITH H1 =     70.000 AND ANGLE =    180.000 INTERSECTS THE EARTH

          H2 HAS BEEN RESET TO 0.0 AND LEN TO 0



 SLANT PATH PARAMETERS IN STANDARD FORM

          H1      =     70.000 KM
          H2      =      0.000 KM
          ANGLE   =    180.000 DEG
          PHI     =      0.000 DEG
          HMIN    =      0.000 KM
          LEN     =          0
1CALCULATION OF THE REFRACTED PATH THROUGH THE ATMOSPHERE


  I       ALTITUDE        THETA  DRANGE    RANGE    DBETA     BETA     PHI     DBEND  BENDING    PBAR    TBAR   RHOBAR
      FROM       TO
      (KM)      (KM)      (DEG)    (KM)     (KM)    (DEG)    (DEG)    (DEG)    (DEG)    (DEG)    (MB)    (K)  (GM CM-3)

          H2 TO H1

  1    0.000    1.000    0.000    1.000    1.000    0.000    0.000  180.000    0.000    0.000  958.317  297.95 1.12E-03
  2    1.000    2.000    0.000    1.000    2.000    0.000    0.000  180.000    0.000    0.000  854.330  291.95 1.02E-03
  3    2.000    3.000    0.000    1.000    3.000    0.000    0.000  180.000    0.000    0.000  759.896  286.94 9.22E-04
  4    3.000    4.000    0.000    1.000    4.000    0.000    0.000  180.000    0.000    0.000  673.838  281.60 8.33E-04
  5    4.000    5.000    0.000    1.000    5.000    0.000    0.000  180.000    0.000    0.000  595.850  274.90 7.54E-04
  6    5.000    6.000    0.000    1.000    6.000    0.000    0.000  180.000    0.000    0.000  525.361  268.20 6.82E-04
  7    6.000    7.000    0.000    1.000    7.000    0.000    0.000  180.000    0.000    0.000  461.874  261.55 6.14E-04
  8    7.000    8.000    0.000    1.000    8.000    0.000    0.000  180.000    0.000    0.000  404.882  254.91 5.53E-04
  9    8.000    9.000    0.000    1.000    9.000    0.000    0.000  180.000    0.000    0.000  353.390  248.21 4.95E-04
 10    9.000   10.000    0.000    1.000   10.000    0.000    0.000  180.000    0.000    0.000  307.402  241.56 4.43E-04
 11   10.000   11.000    0.000    1.000   11.000    0.000    0.000  180.000    0.000    0.000  266.405  234.81 3.95E-04
 12   11.000   12.000    0.000    1.000   12.000    0.000    0.000  180.000    0.000    0.000  229.919  228.11 3.51E-04
 13   12.000   13.000    0.000    1.000   13.000    0.000    0.000  180.000    0.000    0.000  197.423  221.56 3.10E-04
 14   13.000   14.000    0.000    1.000   14.000    0.000    0.000  180.000    0.000    0.000  168.932  214.91 2.73E-04
 15   14.000   15.000    0.000    1.000   15.000    0.000    0.000  180.000    0.000    0.000  143.937  208.27 2.40E-04
 16   15.000   16.000    0.000    1.000   16.000    0.000    0.000  180.000    0.000    0.000  121.442  201.62 2.09E-04
 17   16.000   17.000    0.000    1.000   17.000    0.000    0.000  180.000    0.000    0.000  102.334  197.14 1.80E-04
 18   17.000   18.000    0.000    1.000   18.000    0.000    0.000  180.000    0.000    0.000   86.325  197.94 1.52E-04
 19   18.000   19.000    0.000    1.000   19.000    0.000    0.000  180.000    0.000    0.000   72.770  201.89 1.25E-04
 20   19.000   20.000    0.000    1.000   20.000    0.000    0.000  180.000    0.000    0.000   61.566  205.84 1.04E-04
 21   20.000   21.000    0.000    1.000   21.000    0.000    0.000  180.000    0.000    0.000   52.263  209.84 8.66E-05
 22   21.000   22.000    0.000    1.000   22.000    0.000    0.000  180.000    0.000    0.000   44.461  213.80 7.23E-05
 23   22.000   23.000    0.000    1.000   23.000    0.000    0.000  180.000    0.000    0.000   37.955  216.97 6.08E-05
 24   23.000   24.000    0.000    1.000   24.000    0.000    0.000  180.000    0.000    0.000   32.504  219.28 5.15E-05
 25   24.000   25.000    0.000    1.000   25.000    0.000    0.000  180.000    0.000    0.000   27.854  221.48 4.37E-05
 26   25.000   30.000    0.000    5.000   30.000    0.000    0.000  180.000    0.000    0.000   19.003  227.30 2.78E-05
 27   30.000   35.000    0.000    5.000   35.000    0.000    0.000  180.000    0.000    0.000    9.123  238.20 1.28E-05
 28   35.000   40.000    0.000    5.000   40.000    0.000    0.000  180.000    0.000    0.000    4.536  249.07 6.10E-06
 29   40.000   45.000    0.000    5.000   45.000    0.000    0.000  180.000    0.000    0.000    2.325  259.95 3.00E-06
 30   45.000   50.000    0.000    5.000   50.000    0.000    0.000  180.000    0.000    0.000    1.223  268.41 1.54E-06
 31   50.000   70.000    0.000   20.000   70.000    0.000    0.000  180.000    0.000    0.000    0.445  254.59 4.05E-07




1CUMULATIVE ABSORBER AMOUNTS FOR THE PATH FROM H1 TO Z

  J     Z        TBAR     HNO3        O3 UV      CNTMSLF1   CNTMSLF2    CNTMFRN      O2
       (KM)       (K)   (ATM CM)    (ATM CM)    (MOL CM-2)  (MOL CM-2)  (MOL CM-2)(MOL CM-2)

  1   50.000   254.59   0.000E+00   9.980E-04   3.255E+08   3.744E+08   5.220E+13   1.310E+02
  2   45.000   268.41   0.000E+00   3.181E-03   1.180E+09   1.029E+09   1.871E+14   2.553E+02
  3   40.000   259.95   0.000E+00   1.020E-02   4.032E+09   3.885E+09   6.699E+14   4.985E+02
  4   35.000   249.07   0.000E+00   3.068E-02   1.364E+10   1.641E+10   2.471E+15   9.934E+02
  5   30.000   238.20   0.000E+00   7.748E-02   4.667E+10   6.944E+10   9.482E+15   2.035E+03
  6   25.000   227.30   0.000E+00   1.518E-01   1.581E+11   2.820E+11   3.751E+16   4.323E+03
  7   24.000   221.48   0.000E+00   1.681E-01   2.027E+11   3.743E+11   4.971E+16   5.050E+03
  8   23.000   219.28   0.000E+00   1.833E-01   2.580E+11   4.923E+11   6.573E+16   5.911E+03
  9   22.000   216.97   0.000E+00   1.968E-01   3.260E+11   6.416E+11   8.669E+16   6.932E+03
 10   21.000   213.80   0.000E+00   2.084E-01   4.144E+11   8.434E+11   1.151E+17   8.155E+03
 11   20.000   209.84   0.000E+00   2.190E-01   5.336E+11   1.129E+12   1.546E+17   9.632E+03
 12   19.000   205.84   0.000E+00   2.283E-01   7.042E+11   1.556E+12   2.114E+17   1.142E+04
 13   18.000   201.89   0.000E+00   2.352E-01   9.704E+11   2.252E+12   2.968E+17   1.361E+04
 14   17.000   197.94   0.000E+00   2.394E-01   1.410E+12   3.450E+12   4.297E+17   1.630E+04
 15   16.000   197.14   0.000E+00   2.421E-01   2.090E+12   5.317E+12   6.263E+17   1.956E+04
 16   15.000   201.62   0.000E+00   2.443E-01   3.366E+12   8.662E+12   9.379E+17   2.340E+04
 17   14.000   208.27   0.000E+00   2.464E-01   6.868E+12   1.720E+13   1.528E+18   2.788E+04
 18   13.000   214.91   0.000E+00   2.485E-01   1.792E+13   4.210E+13   2.719E+18   3.308E+04
 19   12.000   221.56   0.000E+00   2.506E-01   9.551E+13   2.025E+14   6.172E+18   3.909E+04
 20   11.000   228.11   0.000E+00   2.525E-01   7.792E+14   1.492E+15   1.790E+19   4.603E+04
 21   10.000   234.81   0.000E+00   2.544E-01   6.476E+15   1.117E+16   5.588E+19   5.403E+04
 22    9.000   241.56   0.000E+00   2.562E-01   4.381E+16   6.763E+16   1.663E+20   6.323E+04
 23    8.000   248.21   0.000E+00   2.580E-01   2.219E+17   3.040E+17   4.381E+20   7.378E+04
 24    7.000   254.91   0.000E+00   2.599E-01   8.965E+17   1.074E+18   1.031E+21   8.589E+04
 25    6.000   261.55   0.000E+00   2.618E-01   3.153E+18   3.233E+18   2.236E+21   9.975E+04
 26    5.000   268.20   0.000E+00   2.638E-01   1.026E+19   8.723E+18   4.609E+21   1.156E+05
 27    4.000   274.90   0.000E+00   2.660E-01   2.800E+19   1.912E+19   8.774E+21   1.337E+05
 28    3.000   281.60   0.000E+00   2.683E-01   8.712E+19   4.276E+19   1.703E+22   1.544E+05
 29    2.000   286.94   0.000E+00   2.707E-01   3.315E+20   1.043E+20   3.555E+22   1.781E+05
 30    1.000   291.95   0.000E+00   2.732E-01   9.668E+20   1.758E+20   6.875E+22   2.053E+05
 31    0.000   297.95   0.000E+00   2.758E-01   2.263E+21   1.057E+20   1.205E+23   2.365E+05



1 J     Z       N2 CONT    MOL SCAT       AER 1       AER 2       AER 3       AER 4       CIRRUS
       (KM)

  1   50.000   2.645E-06   6.268E-03   0.000E+00   0.000E+00   0.000E+00   0.000E+00   0.000E+00
  2   45.000   9.358E-06   1.221E-02   0.000E+00   0.000E+00   0.000E+00   0.000E+00   0.000E+00
  3   40.000   3.514E-05   2.384E-02   0.000E+00   0.000E+00   0.000E+00   0.000E+00   0.000E+00
  4   35.000   1.417E-04   4.743E-02   0.000E+00   0.000E+00   0.000E+00   0.000E+00   0.000E+00
  5   30.000   6.116E-04   9.687E-02   0.000E+00   0.000E+00   0.000E+00   0.000E+00   0.000E+00
  6   25.000   2.841E-03   2.043E-01   0.000E+00   0.000E+00   0.000E+00   0.000E+00   0.000E+00
  7   24.000   3.894E-03   2.381E-01   0.000E+00   0.000E+00   0.000E+00   0.000E+00   0.000E+00
  8   23.000   5.357E-03   2.780E-01   0.000E+00   0.000E+00   0.000E+00   0.000E+00   0.000E+00
  9   22.000   7.395E-03   3.251E-01   0.000E+00   0.000E+00   0.000E+00   0.000E+00   0.000E+00
 10   21.000   1.027E-02   3.810E-01   0.000E+00   0.000E+00   0.000E+00   0.000E+00   0.000E+00
 11   20.000   1.440E-02   4.480E-01   0.000E+00   0.000E+00   0.000E+00   0.000E+00   0.000E+00
 12   19.000   2.036E-02   5.284E-01   0.000E+00   0.000E+00   0.000E+00   0.000E+00   0.000E+00
 13   18.000   2.901E-02   6.253E-01   0.000E+00   0.000E+00   0.000E+00   0.000E+00   0.000E+00
 14   17.000   4.167E-02   7.426E-01   0.000E+00   0.000E+00   0.000E+00   0.000E+00   0.000E+00
 15   16.000   5.960E-02   8.822E-01   0.000E+00   0.000E+00   0.000E+00   0.000E+00   0.000E+00
 16   15.000   8.375E-02   1.044E+00   0.000E+00   0.000E+00   0.000E+00   0.000E+00   0.000E+00
 17   14.000   1.155E-01   1.230E+00   0.000E+00   0.000E+00   0.000E+00   0.000E+00   0.000E+00
 18   13.000   1.567E-01   1.442E+00   0.000E+00   0.000E+00   0.000E+00   0.000E+00   0.000E+00
 19   12.000   2.096E-01   1.682E+00   0.000E+00   0.000E+00   0.000E+00   0.000E+00   0.000E+00
 20   11.000   2.772E-01   1.953E+00   0.000E+00   0.000E+00   0.000E+00   0.000E+00   0.000E+00
 21   10.000   3.629E-01   2.258E+00   0.000E+00   0.000E+00   0.000E+00   0.000E+00   0.000E+00
 22    9.000   4.708E-01   2.601E+00   0.000E+00   0.000E+00   0.000E+00   0.000E+00   0.000E+00
 23    8.000   6.059E-01   2.984E+00   0.000E+00   0.000E+00   0.000E+00   0.000E+00   0.000E+00
 24    7.000   7.739E-01   3.412E+00   0.000E+00   0.000E+00   0.000E+00   0.000E+00   0.000E+00
 25    6.000   9.817E-01   3.887E+00   0.000E+00   0.000E+00   0.000E+00   0.000E+00   0.000E+00
 26    5.000   1.237E+00   4.415E+00   0.000E+00   0.000E+00   0.000E+00   0.000E+00   0.000E+00
 27    4.000   1.550E+00   4.999E+00   0.000E+00   0.000E+00   0.000E+00   0.000E+00   0.000E+00
 28    3.000   1.932E+00   5.643E+00   0.000E+00   0.000E+00   0.000E+00   0.000E+00   0.000E+00
 29    2.000   2.399E+00   6.356E+00   0.000E+00   0.000E+00   0.000E+00   0.000E+00   0.000E+00
 30    1.000   2.970E+00   7.144E+00   0.000E+00   0.000E+00   0.000E+00   0.000E+00   0.000E+00
 31    0.000   3.660E+00   8.011E+00   0.000E+00   0.000E+00   0.000E+00   0.000E+00   0.000E+00



1  J    Z       H2O       O3        CO2       CO        CH4       N2O       O2        NH3       NO        NO2       SO2
      (KM)    (                                                      ATM CM                                             )

   1   50.00  3.79E-03  9.98E-04  5.01E-01  0.00E+00  1.19E-04  0.00E+00  1.31E+02  0.00E+00  0.00E+00  0.00E+00  0.00E+00
   2   45.00  7.57E-03  3.18E-03  9.76E-01  0.00E+00  2.90E-04  0.00E+00  2.55E+02  0.00E+00  0.00E+00  0.00E+00  0.00E+00
   3   40.00  1.45E-02  1.02E-02  1.91E+00  0.00E+00  8.33E-04  0.00E+00  4.98E+02  0.00E+00  0.00E+00  0.00E+00  0.00E+00
   4   35.00  2.71E-02  3.07E-02  3.79E+00  0.00E+00  2.39E-03  0.00E+00  9.91E+02  0.00E+00  0.00E+00  0.00E+00  0.00E+00
   5   30.00  5.06E-02  7.75E-02  7.74E+00  0.00E+00  6.53E-03  0.00E+00  2.02E+03  0.00E+00  0.00E+00  0.00E+00  0.00E+00
   6   25.00  9.37E-02  1.52E-01  1.63E+01  0.00E+00  1.72E-02  0.00E+00  4.27E+03  0.00E+00  0.00E+00  0.00E+00  0.00E+00
   7   24.00  1.06E-01  1.68E-01  1.90E+01  0.00E+00  2.09E-02  0.00E+00  4.97E+03  0.00E+00  0.00E+00  0.00E+00  0.00E+00
   8   23.00  1.20E-01  1.83E-01  2.22E+01  0.00E+00  2.55E-02  0.00E+00  5.81E+03  0.00E+00  0.00E+00  0.00E+00  0.00E+00
   9   22.00  1.35E-01  1.97E-01  2.60E+01  0.00E+00  3.13E-02  0.00E+00  6.79E+03  0.00E+00  0.00E+00  0.00E+00  0.00E+00
  10   21.00  1.53E-01  2.08E-01  3.05E+01  0.00E+00  3.86E-02  0.00E+00  7.96E+03  0.00E+00  0.00E+00  0.00E+00  0.00E+00
  11   20.00  1.73E-01  2.19E-01  3.58E+01  0.00E+00  4.79E-02  0.00E+00  9.36E+03  0.00E+00  0.00E+00  0.00E+00  0.00E+00
  12   19.00  1.97E-01  2.28E-01  4.22E+01  0.00E+00  5.96E-02  0.00E+00  1.10E+04  0.00E+00  0.00E+00  0.00E+00  0.00E+00
  13   18.00  2.27E-01  2.35E-01  5.00E+01  0.00E+00  7.41E-02  0.00E+00  1.31E+04  0.00E+00  0.00E+00  0.00E+00  0.00E+00
  14   17.00  2.66E-01  2.39E-01  5.94E+01  0.00E+00  9.21E-02  0.00E+00  1.55E+04  0.00E+00  0.00E+00  0.00E+00  0.00E+00
  15   16.00  3.14E-01  2.42E-01  7.05E+01  0.00E+00  1.14E-01  0.00E+00  1.84E+04  0.00E+00  0.00E+00  0.00E+00  0.00E+00
  16   15.00  3.80E-01  2.44E-01  8.35E+01  0.00E+00  1.40E-01  0.00E+00  2.18E+04  0.00E+00  0.00E+00  0.00E+00  0.00E+00
  17   14.00  4.88E-01  2.46E-01  9.83E+01  0.00E+00  1.70E-01  0.00E+00  2.57E+04  0.00E+00  0.00E+00  0.00E+00  0.00E+00
  18   13.00  6.80E-01  2.49E-01  1.15E+02  0.00E+00  2.04E-01  0.00E+00  3.01E+04  0.00E+00  0.00E+00  0.00E+00  0.00E+00
  19   12.00  1.17E+00  2.51E-01  1.34E+02  0.00E+00  2.44E-01  0.00E+00  3.51E+04  0.00E+00  0.00E+00  0.00E+00  0.00E+00
  20   11.00  2.64E+00  2.53E-01  1.56E+02  0.00E+00  2.89E-01  0.00E+00  4.08E+04  0.00E+00  0.00E+00  0.00E+00  0.00E+00
  21   10.00  6.87E+00  2.54E-01  1.81E+02  0.00E+00  3.41E-01  0.00E+00  4.72E+04  0.00E+00  0.00E+00  0.00E+00  0.00E+00
  22    9.00  1.79E+01  2.56E-01  2.08E+02  0.00E+00  3.98E-01  0.00E+00  5.43E+04  0.00E+00  0.00E+00  0.00E+00  0.00E+00
  23    8.00  4.21E+01  2.58E-01  2.39E+02  0.00E+00  4.63E-01  0.00E+00  6.23E+04  0.00E+00  0.00E+00  0.00E+00  0.00E+00
  24    7.00  8.94E+01  2.60E-01  2.73E+02  0.00E+00  5.36E-01  0.00E+00  7.13E+04  0.00E+00  0.00E+00  0.00E+00  0.00E+00
  25    6.00  1.76E+02  2.62E-01  3.11E+02  0.00E+00  6.17E-01  0.00E+00  8.12E+04  0.00E+00  0.00E+00  0.00E+00  0.00E+00
  26    5.00  3.30E+02  2.64E-01  3.53E+02  0.00E+00  7.06E-01  0.00E+00  9.22E+04  0.00E+00  0.00E+00  0.00E+00  0.00E+00
  27    4.00  5.76E+02  2.66E-01  4.00E+02  0.00E+00  8.05E-01  0.00E+00  1.04E+05  0.00E+00  0.00E+00  0.00E+00  0.00E+00
  28    3.00  1.02E+03  2.68E-01  4.51E+02  0.00E+00  9.15E-01  0.00E+00  1.18E+05  0.00E+00  0.00E+00  0.00E+00  0.00E+00
  29    2.00  1.92E+03  2.71E-01  5.08E+02  0.00E+00  1.04E+00  0.00E+00  1.33E+05  0.00E+00  0.00E+00  0.00E+00  0.00E+00
  30    1.00  3.39E+03  2.73E-01  5.71E+02  0.00E+00  1.17E+00  0.00E+00  1.49E+05  0.00E+00  0.00E+00  0.00E+00  0.00E+00
  31    0.00  5.48E+03  2.76E-01  6.40E+02  0.00E+00  1.32E+00  0.00E+00  1.67E+05  0.00E+00  0.00E+00  0.00E+00  0.00E+00



1  J    Z      CFC-11    CFC-12    CFC-13    CFC-14    CFC-22    CFC-113   CFC-114   CFC-115   CLONO2     HNO4     CHCL2F 
                CCL4      N2O5  
      (KM)    (                                                   ATM CM                                                )

   1   50.00  8.53E-16  2.59E-10  6.26E-16  6.26E-16  5.17E-09  2.57E-12  6.29E-10  6.26E-16  4.99E-12  1.26E-11  6.26E-16
              1.13E-18  5.82E-15
   2   45.00  2.20E-14  1.13E-09  1.22E-15  1.22E-15  1.09E-08  1.45E-11  1.49E-09  1.22E-15  3.20E-10  2.30E-10  1.22E-15
              9.82E-17  6.64E-13
   3   40.00  8.08E-13  5.77E-09  2.38E-15  2.38E-15  2.51E-08  9.91E-11  3.80E-09  2.38E-15  1.75E-08  5.13E-09  2.38E-15
              1.29E-14  7.32E-11
   4   35.00  1.22E-10  3.66E-08  4.74E-15  4.74E-15  6.64E-08  9.74E-10  1.09E-08  4.74E-15  5.33E-07  1.43E-07  4.74E-15
              1.72E-11  7.70E-09
   5   30.00  7.30E-09  2.31E-07  9.68E-15  9.68E-15  1.94E-07  9.38E-09  3.41E-08  9.68E-15  4.64E-06  1.69E-06  9.68E-15
              2.70E-09  1.56E-07
   6   25.00  1.52E-07  1.19E-06  2.04E-14  2.04E-14  5.80E-07  6.52E-08  1.08E-07  2.04E-14  1.58E-05  7.59E-06  2.04E-14
              9.13E-08  8.74E-07
   7   24.00  2.56E-07  1.61E-06  2.38E-14  2.38E-14  7.22E-07  9.28E-08  1.36E-07  2.38E-14  1.90E-05  9.51E-06  2.38E-14
              1.64E-07  1.13E-06
   8   23.00  4.14E-07  2.17E-06  2.78E-14  2.78E-14  8.97E-07  1.30E-07  1.70E-07  2.78E-14  2.22E-05  1.16E-05  2.78E-14
              2.81E-07  1.41E-06
   9   22.00  6.55E-07  2.88E-06  3.25E-14  3.25E-14  1.11E-06  1.80E-07  2.13E-07  3.25E-14  2.53E-05  1.37E-05  3.25E-14
              4.71E-07  1.69E-06
  10   21.00  1.01E-06  3.80E-06  3.81E-14  3.81E-14  1.38E-06  2.45E-07  2.66E-07  3.81E-14  2.82E-05  1.58E-05  3.81E-14
              7.59E-07  1.95E-06
  11   20.00  1.50E-06  4.99E-06  4.48E-14  4.48E-14  1.72E-06  3.32E-07  3.33E-07  4.48E-14  3.08E-05  1.79E-05  4.48E-14
              1.18E-06  2.18E-06
  12   19.00  2.19E-06  6.51E-06  5.28E-14  5.28E-14  2.13E-06  4.46E-07  4.16E-07  5.28E-14  3.31E-05  2.00E-05  5.28E-14
              1.77E-06  2.39E-06
  13   18.00  3.13E-06  8.44E-06  6.25E-14  6.25E-14  2.65E-06  5.92E-07  5.20E-07  6.25E-14  3.51E-05  2.21E-05  6.25E-14
              2.60E-06  2.58E-06
  14   17.00  4.38E-06  1.09E-05  7.42E-14  7.42E-14  3.29E-06  7.80E-07  6.49E-07  7.42E-14  3.67E-05  2.40E-05  7.42E-14
              3.72E-06  2.72E-06
  15   16.00  6.02E-06  1.40E-05  8.82E-14  8.82E-14  4.08E-06  1.02E-06  8.07E-07  8.82E-14  3.75E-05  2.56E-05  8.82E-14
              5.22E-06  2.79E-06
  16   15.00  8.05E-06  1.76E-05  1.04E-13  1.04E-13  5.01E-06  1.30E-06  9.95E-07  1.04E-13  3.79E-05  2.71E-05  1.04E-13
              7.09E-06  2.81E-06
  17   14.00  1.04E-05  2.19E-05  1.23E-13  1.23E-13  6.09E-06  1.64E-06  1.21E-06  1.23E-13  3.83E-05  2.85E-05  1.23E-13
              9.30E-06  2.83E-06
  18   13.00  1.33E-05  2.69E-05  1.44E-13  1.44E-13  7.33E-06  2.03E-06  1.46E-06  1.44E-13  3.85E-05  2.98E-05  1.44E-13
              1.19E-05  2.85E-06
  19   12.00  1.65E-05  3.25E-05  1.68E-13  1.68E-13  8.75E-06  2.48E-06  1.75E-06  1.68E-13  3.86E-05  3.10E-05  1.68E-13
              1.49E-05  2.85E-06
  20   11.00  2.03E-05  3.90E-05  1.95E-13  1.95E-13  1.04E-05  2.99E-06  2.07E-06  1.95E-13  3.87E-05  3.22E-05  1.95E-13
              1.84E-05  2.85E-06
  21   10.00  2.46E-05  4.63E-05  2.26E-13  2.26E-13  1.22E-05  3.57E-06  2.44E-06  2.26E-13  3.87E-05  3.36E-05  2.26E-13
              2.24E-05  2.85E-06
  22    9.00  2.94E-05  5.45E-05  2.60E-13  2.60E-13  1.42E-05  4.22E-06  2.85E-06  2.60E-13  3.87E-05  3.53E-05  2.60E-13
              2.68E-05  2.85E-06
  23    8.00  3.47E-05  6.37E-05  2.98E-13  2.98E-13  1.65E-05  4.94E-06  3.31E-06  2.98E-13  3.88E-05  3.72E-05  2.98E-13
              3.17E-05  2.85E-06
  24    7.00  4.07E-05  7.40E-05  3.41E-13  3.41E-13  1.91E-05  5.76E-06  3.82E-06  3.41E-13  3.88E-05  3.91E-05  3.41E-13
              3.73E-05  2.85E-06
  25    6.00  4.73E-05  8.54E-05  3.88E-13  3.88E-13  2.19E-05  6.66E-06  4.39E-06  3.88E-13  3.89E-05  4.08E-05  3.88E-13
              4.34E-05  2.85E-06
  26    5.00  5.47E-05  9.80E-05  4.41E-13  4.41E-13  2.50E-05  7.66E-06  5.03E-06  4.41E-13  3.91E-05  4.20E-05  4.41E-13
              5.02E-05  2.85E-06
  27    4.00  6.29E-05  1.12E-04  5.00E-13  5.00E-13  2.85E-05  8.77E-06  5.73E-06  5.00E-13  3.92E-05  4.27E-05  5.00E-13
              5.78E-05  2.85E-06
  28    3.00  7.19E-05  1.28E-04  5.64E-13  5.64E-13  3.24E-05  9.99E-06  6.50E-06  5.64E-13  3.95E-05  4.31E-05  5.64E-13
              6.62E-05  2.85E-06
  29    2.00  8.19E-05  1.45E-04  6.35E-13  6.35E-13  3.67E-05  1.13E-05  7.35E-06  6.35E-13  3.98E-05  4.34E-05  6.35E-13
              7.55E-05  2.85E-06
  30    1.00  9.29E-05  1.64E-04  7.14E-13  7.14E-13  4.14E-05  1.28E-05  8.30E-06  7.14E-13  4.01E-05  4.37E-05  7.14E-13
              8.57E-05  2.85E-06
  31    0.00  1.05E-04  1.84E-04  8.01E-13  8.01E-13  4.66E-05  1.45E-05  9.34E-06  8.01E-13  4.06E-05  4.38E-05  8.01E-13
              9.69E-05  2.85E-06


0SUMMARY OF THE GEOMETRY CALCULATION

          H1      =     70.000 KM
          H2      =      0.000 KM
          ANGLE   =    180.000 DEG
          RANGE   =     70.000 KM
          BETA    =      0.000 DEG
          PHI     =      0.000 DEG
          HMIN    =      0.000 KM
          BENDING =      0.000 DEG
          LEN     =          0




1EQUIVALENT SEA LEVEL TOTAL ABSORBER AMOUNTS

                 HNO3      O3 UV       CNTMSLF1    CNTMSLF2   CNTMFRN
               (ATM CM)   (ATM CM)     (MOL CM-2)  (MOL CM-2)  (MOL CM-2)  (MOL CM-2)

             0.000E+00   2.758E-01   2.263E+21   1.057E+20   1.205E+23


              N2 CONT    MOL SCAT       AER 1       AER 2       AER 3       AER 4     CIRRUS      MEAN RH
                                                                                                  (PRCNT)

             3.660E+00   8.011E+00   0.000E+00   0.000E+00   0.000E+00   0.000E+00   0.000E+00        0.00


                 H2O        O3          CO2         CO          CH4         N2O          O2
               (                                        ATM CM                            )

             5.484E+03   2.758E-01   6.404E+02   0.000E+00   1.317E+00   0.000E+00   1.673E+05

                 NH3        NO          NO2         SO2
                 (               ATM CM               )

             0.000E+00   0.000E+00   0.000E+00   0.000E+00

             CFC-11      CFC-12      CFC-13      CFC-14      CFC-22      CFC-113     CFC-114
                 (                                      ATM CM                            )

             1.050E-04   1.843E-04   8.005E-13   8.005E-13   4.657E-05   1.449E-05   9.338E-06

             CFC-115     CLONO2       HNO4       CHCL2F       CCL4        N2O5  
                 (                                      ATM CM                            )

             8.005E-13   4.062E-05   4.379E-05   8.005E-13   9.695E-05   2.855E-06
  iv           -5
  iv            0
1                                             RADIANCE(WATTS/CM2-STER-XXX)
0  FREQ   WAVLEN    PATH THERMAL      SURFACE EMISSION    SURFACE REFLECTED     TOTAL RADIANCE   INTEGRAL    TOTAL
  (CM-1) (MICRN)    (CM-1)   (MICRN)    (CM-1)   (MICRN)    (CM-1)   (MICRN)    (CM-1)   (MICRN)    (CM-1)   TRANS

      2. 4999.998  9.89E-10  3.95E-13  2.05E-10  8.22E-14  0.00E+00  0.00E+00  1.19E-09  4.78E-13  1.19E-09  0.20704
      4. 2500.000  3.53E-09  5.65E-12  4.44E-10  7.11E-13  0.00E+00  0.00E+00  3.98E-09  6.36E-12  9.15E-09  0.12449
      6. 1666.666  8.20E-09  2.95E-11  3.04E-10  1.10E-12  0.00E+00  0.00E+00  8.50E-09  3.06E-11  2.62E-08  0.04782
      8. 1250.000  1.46E-08  9.35E-11  1.67E-10  1.07E-12  0.00E+00  0.00E+00  1.48E-08  9.46E-11  5.57E-08  0.01209
     10. 1000.000  2.22E-08  2.22E-10  5.28E-11  5.28E-13  0.00E+00  0.00E+00  2.23E-08  2.23E-10  1.00E-07  0.00311
     12.  833.333  3.05E-08  4.40E-10  4.77E-13  6.86E-15  0.00E+00  0.00E+00  3.05E-08  4.40E-10  1.61E-07  0.00002
     14.  714.286  4.01E-08  7.85E-10  4.64E-17  9.09E-19  0.00E+00  0.00E+00  4.01E-08  7.85E-10  2.41E-07  0.00000
     16.  625.000  5.10E-08  1.30E-09  1.27E-21  3.24E-23  0.00E+00  0.00E+00  5.10E-08  1.30E-09  3.43E-07  0.00000
     18.  555.555  6.14E-08  1.99E-09  7.05E-20  2.28E-21  0.00E+00  0.00E+00  6.14E-08  1.99E-09  4.66E-07  0.00000
     20.  500.000  7.65E-08  3.06E-09  7.05E-20  2.82E-21  0.00E+00  0.00E+00  7.65E-08  3.06E-09  6.19E-07  0.00000
     22.  454.545  9.54E-08  4.62E-09  1.58E-34  7.65E-36  0.00E+00  0.00E+00  9.54E-08  4.62E-09  8.10E-07  0.00000
     24.  416.667  1.09E-07  6.27E-09  1.71E-31  9.88E-33  0.00E+00  0.00E+00  1.09E-07  6.27E-09  1.03E-06  0.00000
     26.  384.615  1.26E-07  8.49E-09  1.71E-31  1.16E-32  0.00E+00  0.00E+00  1.26E-07  8.49E-09  1.28E-06  0.00000
     28.  357.143  1.50E-07  1.18E-08  1.18E-40  9.28E-42  0.00E+00  0.00E+00  1.50E-07  1.18E-08  1.58E-06  0.00000
     30.  333.333  1.70E-07  1.53E-08  6.75E-41  6.08E-42  0.00E+00  0.00E+00  1.70E-07  1.53E-08  1.92E-06  0.00000
     32.  312.500  1.85E-07  1.90E-08  0.00E+00  0.00E+00  0.00E+00  0.00E+00  1.85E-07  1.90E-08  2.29E-06  0.00000
     34.  294.118  2.06E-07  2.38E-08  0.00E+00  0.00E+00  0.00E+00  0.00E+00  2.06E-07  2.38E-08  2.70E-06  0.00000
     36.  277.778  2.21E-07  2.86E-08  0.00E+00  0.00E+00  0.00E+00  0.00E+00  2.21E-07  2.86E-08  3.14E-06  0.00000
     38.  263.158  2.35E-07  3.40E-08  0.00E+00  0.00E+00  0.00E+00  0.00E+00  2.35E-07  3.40E-08  3.61E-06  0.00000
     40.  250.000  2.64E-07  4.23E-08  0.00E+00  0.00E+00  0.00E+00  0.00E+00  2.64E-07  4.23E-08  4.14E-06  0.00000
     42.  238.095  3.04E-07  5.37E-08  0.00E+00  0.00E+00  0.00E+00  0.00E+00  3.04E-07  5.37E-08  4.75E-06  0.00000
     44.  227.273  3.40E-07  6.58E-08  0.00E+00  0.00E+00  0.00E+00  0.00E+00  3.40E-07  6.58E-08  5.43E-06  0.00000
     46.  217.391  3.61E-07  7.64E-08  0.00E+00  0.00E+00  0.00E+00  0.00E+00  3.61E-07  7.64E-08  6.15E-06  0.00000
     48.  208.333  3.87E-07  8.91E-08  0.00E+00  0.00E+00  0.00E+00  0.00E+00  3.87E-07  8.91E-08  6.93E-06  0.00000
     50.  200.000  4.27E-07  1.07E-07  0.00E+00  0.00E+00  0.00E+00  0.00E+00  4.27E-07  1.07E-07  7.78E-06  0.00000
     52.  192.308  4.49E-07  1.21E-07  0.00E+00  0.00E+00  0.00E+00  0.00E+00  4.49E-07  1.21E-07  8.68E-06  0.00000
     54.  185.185  4.57E-07  1.33E-07  0.00E+00  0.00E+00  0.00E+00  0.00E+00  4.57E-07  1.33E-07  9.59E-06  0.00000
     56.  178.571  4.72E-07  1.48E-07  0.00E+00  0.00E+00  0.00E+00  0.00E+00  4.72E-07  1.48E-07  1.05E-05  0.00000
     58.  172.414  5.12E-07  1.72E-07  0.00E+00  0.00E+00  0.00E+00  0.00E+00  5.12E-07  1.72E-07  1.16E-05  0.00000
     60.  166.667  5.60E-07  2.02E-07  0.00E+00  0.00E+00  0.00E+00  0.00E+00  5.60E-07  2.02E-07  1.27E-05  0.00000
     62.  161.290  5.95E-07  2.29E-07  0.00E+00  0.00E+00  0.00E+00  0.00E+00  5.95E-07  2.29E-07  1.39E-05  0.00000
     64.  156.250  6.32E-07  2.59E-07  0.00E+00  0.00E+00  0.00E+00  0.00E+00  6.32E-07  2.59E-07  1.51E-05  0.00000
     66.  151.515  6.86E-07  2.99E-07  0.00E+00  0.00E+00  0.00E+00  0.00E+00  6.86E-07  2.99E-07  1.65E-05  0.00000
     68.  147.059  7.12E-07  3.29E-07  0.00E+00  0.00E+00  0.00E+00  0.00E+00  7.12E-07  3.29E-07  1.79E-05  0.00000
     70.  142.857  7.44E-07  3.65E-07  0.00E+00  0.00E+00  0.00E+00  0.00E+00  7.44E-07  3.65E-07  1.94E-05  0.00000
     72.  138.889  7.56E-07  3.92E-07  0.00E+00  0.00E+00  0.00E+00  0.00E+00  7.56E-07  3.92E-07  2.09E-05  0.00000
     74.  135.135  7.81E-07  4.28E-07  0.00E+00  0.00E+00  0.00E+00  0.00E+00  7.81E-07  4.28E-07  2.25E-05  0.00000
     76.  131.579  8.37E-07  4.83E-07  0.00E+00  0.00E+00  0.00E+00  0.00E+00  8.37E-07  4.83E-07  2.42E-05  0.00000
     78.  128.205  8.76E-07  5.33E-07  0.00E+00  0.00E+00  0.00E+00  0.00E+00  8.76E-07  5.33E-07  2.59E-05  0.00000
     80.  125.000  9.05E-07  5.79E-07  0.00E+00  0.00E+00  0.00E+00  0.00E+00  9.05E-07  5.79E-07  2.77E-05  0.00000
     82.  121.951  9.62E-07  6.47E-07  0.00E+00  0.00E+00  0.00E+00  0.00E+00  9.62E-07  6.47E-07  2.97E-05  0.00000
     84.  119.048  1.04E-06  7.31E-07  0.00E+00  0.00E+00  0.00E+00  0.00E+00  1.04E-06  7.31E-07  3.17E-05  0.00000
     86.  116.279  1.06E-06  7.85E-07  0.00E+00  0.00E+00  0.00E+00  0.00E+00  1.06E-06  7.85E-07  3.38E-05  0.00000
     88.  113.636  1.05E-06  8.14E-07  0.00E+00  0.00E+00  0.00E+00  0.00E+00  1.05E-06  8.14E-07  3.60E-05  0.00000
     90.  111.111  1.10E-06  8.90E-07  0.00E+00  0.00E+00  0.00E+00  0.00E+00  1.10E-06  8.90E-07  3.81E-05  0.00000
     92.  108.696  1.14E-06  9.63E-07  0.00E+00  0.00E+00  0.00E+00  0.00E+00  1.14E-06  9.63E-07  4.04E-05  0.00000
     94.  106.383  1.20E-06  1.06E-06  0.00E+00  0.00E+00  0.00E+00  0.00E+00  1.20E-06  1.06E-06  4.28E-05  0.00000
     96.  104.167  1.26E-06  1.16E-06  0.00E+00  0.00E+00  0.00E+00  0.00E+00  1.26E-06  1.16E-06  4.53E-05  0.00000
     98.  102.041  1.28E-06  1.23E-06  0.00E+00  0.00E+00  0.00E+00  0.00E+00  1.28E-06  1.23E-06  4.79E-05  0.00000
    100.  100.000  1.28E-06  1.28E-06  0.00E+00  0.00E+00  0.00E+00  0.00E+00  1.28E-06  1.28E-06  5.04E-05  0.00000
  iv          105
1                                             RADIANCE(WATTS/CM2-STER-XXX)
0  FREQ   WAVLEN    PATH THERMAL      SURFACE EMISSION    SURFACE REFLECTED     TOTAL RADIANCE   INTEGRAL    TOTAL
  (CM-1) (MICRN)    (CM-1)   (MICRN)    (CM-1)   (MICRN)    (CM-1)   (MICRN)    (CM-1)   (MICRN)    (CM-1)   TRANS

    102.   98.039  1.35E-06  1.41E-06  0.00E+00  0.00E+00  0.00E+00  0.00E+00  1.35E-06  1.41E-06  5.31E-05  0.00000
    104.   96.154  1.40E-06  1.51E-06  0.00E+00  0.00E+00  0.00E+00  0.00E+00  1.40E-06  1.51E-06  5.59E-05  0.00000
    106.   94.340  1.44E-06  1.61E-06  0.00E+00  0.00E+00  0.00E+00  0.00E+00  1.44E-06  1.61E-06  5.88E-05  0.00000
    108.   92.593  1.55E-06  1.80E-06  0.00E+00  0.00E+00  0.00E+00  0.00E+00  1.55E-06  1.80E-06  6.19E-05  0.00000
    110.   90.909  1.59E-06  1.92E-06  0.00E+00  0.00E+00  0.00E+00  0.00E+00  1.59E-06  1.92E-06  6.51E-05  0.00000
    112.   89.286  1.64E-06  2.05E-06  0.00E+00  0.00E+00  0.00E+00  0.00E+00  1.64E-06  2.05E-06  6.84E-05  0.00000
    114.   87.719  1.77E-06  2.29E-06  0.00E+00  0.00E+00  0.00E+00  0.00E+00  1.77E-06  2.29E-06  7.19E-05  0.00000
    116.   86.207  1.80E-06  2.42E-06  0.00E+00  0.00E+00  0.00E+00  0.00E+00  1.80E-06  2.42E-06  7.55E-05  0.00000
    118.   84.746  1.79E-06  2.49E-06  0.00E+00  0.00E+00  0.00E+00  0.00E+00  1.79E-06  2.49E-06  7.91E-05  0.00000
    120.   83.333  1.76E-06  2.54E-06  0.00E+00  0.00E+00  0.00E+00  0.00E+00  1.76E-06  2.54E-06  8.26E-05  0.00000
    122.   81.967  1.79E-06  2.66E-06  0.00E+00  0.00E+00  0.00E+00  0.00E+00  1.79E-06  2.66E-06  8.62E-05  0.00000
    124.   80.645  1.90E-06  2.92E-06  0.00E+00  0.00E+00  0.00E+00  0.00E+00  1.90E-06  2.92E-06  9.00E-05  0.00000
    126.   79.365  1.90E-06  3.02E-06  0.00E+00  0.00E+00  0.00E+00  0.00E+00  1.90E-06  3.02E-06  9.38E-05  0.00000
    128.   78.125  1.97E-06  3.23E-06  0.00E+00  0.00E+00  0.00E+00  0.00E+00  1.97E-06  3.23E-06  9.77E-05  0.00000
    130.   76.923  2.07E-06  3.49E-06  0.00E+00  0.00E+00  0.00E+00  0.00E+00  2.07E-06  3.49E-06  1.02E-04  0.00000
    132.   75.758  2.03E-06  3.53E-06  0.00E+00  0.00E+00  0.00E+00  0.00E+00  2.03E-06  3.53E-06  1.06E-04  0.00000
    134.   74.627  2.13E-06  3.82E-06  0.00E+00  0.00E+00  0.00E+00  0.00E+00  2.13E-06  3.82E-06  1.10E-04  0.00000
    136.   73.529  2.27E-06  4.19E-06  0.00E+00  0.00E+00  0.00E+00  0.00E+00  2.27E-06  4.19E-06  1.15E-04  0.00000
    138.   72.464  2.23E-06  4.24E-06  0.00E+00  0.00E+00  0.00E+00  0.00E+00  2.23E-06  4.24E-06  1.19E-04  0.00000
    140.   71.429  2.20E-06  4.32E-06  0.00E+00  0.00E+00  0.00E+00  0.00E+00  2.20E-06  4.32E-06  1.24E-04  0.00000
    142.   70.423  2.38E-06  4.80E-06  0.00E+00  0.00E+00  0.00E+00  0.00E+00  2.38E-06  4.80E-06  1.28E-04  0.00000
    144.   69.444  2.54E-06  5.26E-06  0.00E+00  0.00E+00  0.00E+00  0.00E+00  2.54E-06  5.26E-06  1.33E-04  0.00000
    146.   68.493  2.56E-06  5.45E-06  0.00E+00  0.00E+00  0.00E+00  0.00E+00  2.56E-06  5.45E-06  1.39E-04  0.00000
    148.   67.568  2.46E-06  5.39E-06  0.00E+00  0.00E+00  0.00E+00  0.00E+00  2.46E-06  5.39E-06  1.43E-04  0.00000
    150.   66.667  2.36E-06  5.32E-06  0.00E+00  0.00E+00  0.00E+00  0.00E+00  2.36E-06  5.32E-06  1.48E-04  0.00000
    152.   65.789  2.44E-06  5.64E-06  0.00E+00  0.00E+00  0.00E+00  0.00E+00  2.44E-06  5.64E-06  1.53E-04  0.00000
    154.   64.935  2.59E-06  6.15E-06  0.00E+00  0.00E+00  0.00E+00  0.00E+00  2.59E-06  6.15E-06  1.58E-04  0.00000
    156.   64.103  2.69E-06  6.53E-06  0.00E+00  0.00E+00  0.00E+00  0.00E+00  2.69E-06  6.53E-06  1.64E-04  0.00000
    158.   63.291  2.72E-06  6.78E-06  0.00E+00  0.00E+00  0.00E+00  0.00E+00  2.72E-06  6.78E-06  1.69E-04  0.00000
    160.   62.500  2.88E-06  7.38E-06  0.00E+00  0.00E+00  0.00E+00  0.00E+00  2.88E-06  7.38E-06  1.75E-04  0.00000
    162.   61.728  3.01E-06  7.89E-06  0.00E+00  0.00E+00  0.00E+00  0.00E+00  3.01E-06  7.89E-06  1.81E-04  0.00000
    164.   60.976  3.07E-06  8.27E-06  0.00E+00  0.00E+00  0.00E+00  0.00E+00  3.07E-06  8.27E-06  1.87E-04  0.00000
    166.   60.241  3.01E-06  8.30E-06  0.00E+00  0.00E+00  0.00E+00  0.00E+00  3.01E-06  8.30E-06  1.93E-04  0.00000
    168.   59.524  2.97E-06  8.37E-06  0.00E+00  0.00E+00  0.00E+00  0.00E+00  2.97E-06  8.37E-06  1.99E-04  0.00000
    170.   58.824  2.91E-06  8.42E-06  0.00E+00  0.00E+00  0.00E+00  0.00E+00  2.91E-06  8.42E-06  2.05E-04  0.00000
    172.   58.140  2.99E-06  8.85E-06  0.00E+00  0.00E+00  0.00E+00  0.00E+00  2.99E-06  8.85E-06  2.11E-04  0.00000
    174.   57.471  3.08E-06  9.32E-06  0.00E+00  0.00E+00  0.00E+00  0.00E+00  3.08E-06  9.32E-06  2.17E-04  0.00000
    176.   56.818  3.10E-06  9.62E-06  0.00E+00  0.00E+00  0.00E+00  0.00E+00  3.10E-06  9.62E-06  2.23E-04  0.00000
    178.   56.180  3.15E-06  9.98E-06  0.00E+00  0.00E+00  0.00E+00  0.00E+00  3.15E-06  9.98E-06  2.29E-04  0.00000
    180.   55.556  3.32E-06  1.07E-05  0.00E+00  0.00E+00  0.00E+00  0.00E+00  3.32E-06  1.07E-05  2.36E-04  0.00000
    182.   54.945  3.42E-06  1.13E-05  0.00E+00  0.00E+00  0.00E+00  0.00E+00  3.42E-06  1.13E-05  2.43E-04  0.00000
    184.   54.348  3.59E-06  1.21E-05  0.00E+00  0.00E+00  0.00E+00  0.00E+00  3.59E-06  1.21E-05  2.50E-04  0.00000
    186.   53.763  3.62E-06  1.25E-05  0.00E+00  0.00E+00  0.00E+00  0.00E+00  3.62E-06  1.25E-05  2.57E-04  0.00000
    188.   53.191  3.51E-06  1.24E-05  0.00E+00  0.00E+00  0.00E+00  0.00E+00  3.51E-06  1.24E-05  2.64E-04  0.00000
    190.   52.632  3.70E-06  1.34E-05  0.00E+00  0.00E+00  0.00E+00  0.00E+00  3.70E-06  1.34E-05  2.72E-04  0.00000
    192.   52.083  3.78E-06  1.39E-05  0.00E+00  0.00E+00  0.00E+00  0.00E+00  3.78E-06  1.39E-05  2.79E-04  0.00000
    194.   51.546  3.72E-06  1.40E-05  0.00E+00  0.00E+00  0.00E+00  0.00E+00  3.72E-06  1.40E-05  2.87E-04  0.00000
    196.   51.020  3.80E-06  1.46E-05  0.00E+00  0.00E+00  0.00E+00  0.00E+00  3.80E-06  1.46E-05  2.94E-04  0.00000
    198.   50.505  3.88E-06  1.52E-05  0.00E+00  0.00E+00  0.00E+00  0.00E+00  3.88E-06  1.52E-05  3.02E-04  0.00000
    200.   50.000  3.81E-06  1.52E-05  0.00E+00  0.00E+00  0.00E+00  0.00E+00  3.81E-06  1.52E-05  3.10E-04  0.00000
  iv          205
1                                             RADIANCE(WATTS/CM2-STER-XXX)
0  FREQ   WAVLEN    PATH THERMAL      SURFACE EMISSION    SURFACE REFLECTED     TOTAL RADIANCE   INTEGRAL    TOTAL
  (CM-1) (MICRN)    (CM-1)   (MICRN)    (CM-1)   (MICRN)    (CM-1)   (MICRN)    (CM-1)   (MICRN)    (CM-1)   TRANS

    202.   49.505  3.59E-06  1.46E-05  0.00E+00  0.00E+00  0.00E+00  0.00E+00  3.59E-06  1.46E-05  3.17E-04  0.00000
    204.   49.020  3.75E-06  1.56E-05  0.00E+00  0.00E+00  0.00E+00  0.00E+00  3.75E-06  1.56E-05  3.24E-04  0.00000
    206.   48.544  3.94E-06  1.67E-05  0.00E+00  0.00E+00  0.00E+00  0.00E+00  3.94E-06  1.67E-05  3.32E-04  0.00000
    208.   48.077  3.83E-06  1.66E-05  0.00E+00  0.00E+00  0.00E+00  0.00E+00  3.83E-06  1.66E-05  3.40E-04  0.00000
    210.   47.619  4.03E-06  1.78E-05  0.00E+00  0.00E+00  0.00E+00  0.00E+00  4.03E-06  1.78E-05  3.48E-04  0.00000
    212.   47.170  4.17E-06  1.87E-05  0.00E+00  0.00E+00  0.00E+00  0.00E+00  4.17E-06  1.87E-05  3.56E-04  0.00000
    214.   46.729  4.12E-06  1.89E-05  0.00E+00  0.00E+00  0.00E+00  0.00E+00  4.12E-06  1.89E-05  3.65E-04  0.00000
    216.   46.296  4.37E-06  2.04E-05  0.00E+00  0.00E+00  0.00E+00  0.00E+00  4.37E-06  2.04E-05  3.73E-04  0.00000
    218.   45.872  4.56E-06  2.17E-05  0.00E+00  0.00E+00  0.00E+00  0.00E+00  4.56E-06  2.17E-05  3.82E-04  0.00000
    220.   45.455  4.41E-06  2.13E-05  0.00E+00  0.00E+00  0.00E+00  0.00E+00  4.41E-06  2.13E-05  3.91E-04  0.00000
    222.   45.045  4.19E-06  2.07E-05  0.00E+00  0.00E+00  0.00E+00  0.00E+00  4.19E-06  2.07E-05  4.00E-04  0.00000
    224.   44.643  4.26E-06  2.14E-05  0.00E+00  0.00E+00  0.00E+00  0.00E+00  4.26E-06  2.14E-05  4.08E-04  0.00000
    226.   44.248  4.16E-06  2.13E-05  0.00E+00  0.00E+00  0.00E+00  0.00E+00  4.16E-06  2.13E-05  4.16E-04  0.00000
    228.   43.860  4.22E-06  2.19E-05  0.00E+00  0.00E+00  0.00E+00  0.00E+00  4.22E-06  2.19E-05  4.25E-04  0.00000
    230.   43.478  4.58E-06  2.42E-05  0.00E+00  0.00E+00  0.00E+00  0.00E+00  4.58E-06  2.42E-05  4.34E-04  0.00000
    232.   43.103  4.76E-06  2.56E-05  0.00E+00  0.00E+00  0.00E+00  0.00E+00  4.76E-06  2.56E-05  4.44E-04  0.00000
    234.   42.735  4.96E-06  2.71E-05  0.00E+00  0.00E+00  0.00E+00  0.00E+00  4.96E-06  2.71E-05  4.53E-04  0.00000
    236.   42.373  5.13E-06  2.86E-05  0.00E+00  0.00E+00  0.00E+00  0.00E+00  5.13E-06  2.86E-05  4.64E-04  0.00000
    238.   42.017  5.20E-06  2.95E-05  0.00E+00  0.00E+00  0.00E+00  0.00E+00  5.20E-06  2.95E-05  4.74E-04  0.00000
    240.   41.667  5.25E-06  3.02E-05  0.00E+00  0.00E+00  0.00E+00  0.00E+00  5.25E-06  3.02E-05  4.85E-04  0.00000
    242.   41.322  5.20E-06  3.04E-05  0.00E+00  0.00E+00  0.00E+00  0.00E+00  5.20E-06  3.04E-05  4.95E-04  0.00000
    244.   40.984  4.86E-06  2.89E-05  0.00E+00  0.00E+00  0.00E+00  0.00E+00  4.86E-06  2.89E-05  5.05E-04  0.00000
    246.   40.650  4.59E-06  2.77E-05  0.00E+00  0.00E+00  0.00E+00  0.00E+00  4.59E-06  2.77E-05  5.14E-04  0.00000
    248.   40.323  4.71E-06  2.90E-05  0.00E+00  0.00E+00  0.00E+00  0.00E+00  4.71E-06  2.90E-05  5.23E-04  0.00000
    250.   40.000  5.04E-06  3.15E-05  0.00E+00  0.00E+00  0.00E+00  0.00E+00  5.04E-06  3.15E-05  5.33E-04  0.00000
    252.   39.683  4.96E-06  3.15E-05  0.00E+00  0.00E+00  0.00E+00  0.00E+00  4.96E-06  3.15E-05  5.43E-04  0.00000
    254.   39.370  4.79E-06  3.09E-05  0.00E+00  0.00E+00  0.00E+00  0.00E+00  4.79E-06  3.09E-05  5.53E-04  0.00000
    256.   39.063  5.20E-06  3.41E-05  0.00E+00  0.00E+00  0.00E+00  0.00E+00  5.20E-06  3.41E-05  5.63E-04  0.00000
    258.   38.760  5.58E-06  3.71E-05  0.00E+00  0.00E+00  0.00E+00  0.00E+00  5.58E-06  3.71E-05  5.74E-04  0.00000
    260.   38.462  5.76E-06  3.89E-05  0.00E+00  0.00E+00  0.00E+00  0.00E+00  5.76E-06  3.89E-05  5.86E-04  0.00000
    262.   38.168  5.79E-06  3.97E-05  0.00E+00  0.00E+00  0.00E+00  0.00E+00  5.79E-06  3.97E-05  5.98E-04  0.00000
    264.   37.879  5.70E-06  3.97E-05  0.00E+00  0.00E+00  0.00E+00  0.00E+00  5.70E-06  3.97E-05  6.09E-04  0.00000
    266.   37.594  5.52E-06  3.90E-05  0.00E+00  0.00E+00  0.00E+00  0.00E+00  5.52E-06  3.90E-05  6.20E-04  0.00000
    268.   37.313  5.76E-06  4.13E-05  0.00E+00  0.00E+00  0.00E+00  0.00E+00  5.76E-06  4.13E-05  6.31E-04  0.00000
    270.   37.037  6.02E-06  4.39E-05  0.00E+00  0.00E+00  0.00E+00  0.00E+00  6.02E-06  4.39E-05  6.44E-04  0.00000
    272.   36.765  6.02E-06  4.46E-05  0.00E+00  0.00E+00  0.00E+00  0.00E+00  6.02E-06  4.46E-05  6.56E-04  0.00000
    274.   36.496  5.89E-06  4.42E-05  0.00E+00  0.00E+00  0.00E+00  0.00E+00  5.89E-06  4.42E-05  6.67E-04  0.00000
    276.   36.232  5.49E-06  4.19E-05  0.00E+00  0.00E+00  0.00E+00  0.00E+00  5.49E-06  4.19E-05  6.78E-04  0.00000
    278.   35.971  5.19E-06  4.01E-05  0.00E+00  0.00E+00  0.00E+00  0.00E+00  5.19E-06  4.01E-05  6.89E-04  0.00000
    280.   35.714  5.24E-06  4.11E-05  0.00E+00  0.00E+00  0.00E+00  0.00E+00  5.24E-06  4.11E-05  6.99E-04  0.00000
    282.   35.461  5.41E-06  4.30E-05  0.00E+00  0.00E+00  0.00E+00  0.00E+00  5.41E-06  4.30E-05  7.10E-04  0.00000
    284.   35.211  5.89E-06  4.75E-05  0.00E+00  0.00E+00  0.00E+00  0.00E+00  5.89E-06  4.75E-05  7.22E-04  0.00000
    286.   34.965  6.21E-06  5.08E-05  0.00E+00  0.00E+00  0.00E+00  0.00E+00  6.21E-06  5.08E-05  7.34E-04  0.00000
    288.   34.722  5.95E-06  4.93E-05  0.00E+00  0.00E+00  0.00E+00  0.00E+00  5.95E-06  4.93E-05  7.46E-04  0.00000
    290.   34.483  5.84E-06  4.91E-05  0.00E+00  0.00E+00  0.00E+00  0.00E+00  5.84E-06  4.91E-05  7.58E-04  0.00000
    292.   34.247  6.35E-06  5.42E-05  0.00E+00  0.00E+00  0.00E+00  0.00E+00  6.35E-06  5.42E-05  7.71E-04  0.00000
    294.   34.014  6.63E-06  5.73E-05  0.00E+00  0.00E+00  0.00E+00  0.00E+00  6.63E-06  5.73E-05  7.84E-04  0.00000
    296.   33.784  6.60E-06  5.78E-05  0.00E+00  0.00E+00  0.00E+00  0.00E+00  6.60E-06  5.78E-05  7.97E-04  0.00000
    298.   33.557  6.47E-06  5.74E-05  0.00E+00  0.00E+00  0.00E+00  0.00E+00  6.47E-06  5.74E-05  8.10E-04  0.00000
    300.   33.333  6.27E-06  5.64E-05  0.00E+00  0.00E+00  0.00E+00  0.00E+00  6.27E-06  5.64E-05  8.22E-04  0.00000
  iv          305
1                                             RADIANCE(WATTS/CM2-STER-XXX)
0  FREQ   WAVLEN    PATH THERMAL      SURFACE EMISSION    SURFACE REFLECTED     TOTAL RADIANCE   INTEGRAL    TOTAL
  (CM-1) (MICRN)    (CM-1)   (MICRN)    (CM-1)   (MICRN)    (CM-1)   (MICRN)    (CM-1)   (MICRN)    (CM-1)   TRANS

    302.   33.113  5.78E-06  5.27E-05  0.00E+00  0.00E+00  0.00E+00  0.00E+00  5.78E-06  5.27E-05  8.34E-04  0.00000
    304.   32.895  5.97E-06  5.52E-05  0.00E+00  0.00E+00  0.00E+00  0.00E+00  5.97E-06  5.52E-05  8.46E-04  0.00000
    306.   32.680  6.64E-06  6.22E-05  0.00E+00  0.00E+00  0.00E+00  0.00E+00  6.64E-06  6.22E-05  8.59E-04  0.00000
    308.   32.468  6.88E-06  6.53E-05  0.00E+00  0.00E+00  0.00E+00  0.00E+00  6.88E-06  6.53E-05  8.73E-04  0.00000
    310.   32.258  6.99E-06  6.72E-05  0.00E+00  0.00E+00  0.00E+00  0.00E+00  6.99E-06  6.72E-05  8.87E-04  0.00000
    312.   32.051  7.06E-06  6.87E-05  0.00E+00  0.00E+00  0.00E+00  0.00E+00  7.06E-06  6.87E-05  9.01E-04  0.00000
    314.   31.847  6.74E-06  6.65E-05  0.00E+00  0.00E+00  0.00E+00  0.00E+00  6.74E-06  6.65E-05  9.15E-04  0.00000
    316.   31.646  6.77E-06  6.76E-05  0.00E+00  0.00E+00  0.00E+00  0.00E+00  6.77E-06  6.76E-05  9.28E-04  0.00000
    318.   31.447  7.23E-06  7.31E-05  0.00E+00  0.00E+00  0.00E+00  0.00E+00  7.23E-06  7.31E-05  9.43E-04  0.00000
    320.   31.250  7.20E-06  7.38E-05  0.00E+00  0.00E+00  0.00E+00  0.00E+00  7.20E-06  7.38E-05  9.57E-04  0.00000
    322.   31.056  6.75E-06  7.00E-05  0.00E+00  0.00E+00  0.00E+00  0.00E+00  6.75E-06  7.00E-05  9.70E-04  0.00000
    324.   30.864  6.37E-06  6.68E-05  0.00E+00  0.00E+00  0.00E+00  0.00E+00  6.37E-06  6.68E-05  9.83E-04  0.00000
    326.   30.675  6.56E-06  6.97E-05  0.00E+00  0.00E+00  0.00E+00  0.00E+00  6.56E-06  6.97E-05  9.96E-04  0.00000
    328.   30.488  6.49E-06  6.98E-05  0.00E+00  0.00E+00  0.00E+00  0.00E+00  6.49E-06  6.98E-05  1.01E-03  0.00000
    330.   30.303  7.10E-06  7.73E-05  0.00E+00  0.00E+00  0.00E+00  0.00E+00  7.10E-06  7.73E-05  1.02E-03  0.00000
    332.   30.120  7.44E-06  8.20E-05  0.00E+00  0.00E+00  0.00E+00  0.00E+00  7.44E-06  8.20E-05  1.04E-03  0.00000
    334.   29.940  6.95E-06  7.75E-05  0.00E+00  0.00E+00  0.00E+00  0.00E+00  6.95E-06  7.75E-05  1.05E-03  0.00000
    336.   29.762  6.88E-06  7.76E-05  0.00E+00  0.00E+00  0.00E+00  0.00E+00  6.88E-06  7.76E-05  1.07E-03  0.00000
    338.   29.586  7.51E-06  8.58E-05  0.00E+00  0.00E+00  0.00E+00  0.00E+00  7.51E-06  8.58E-05  1.08E-03  0.00000
    340.   29.412  7.33E-06  8.47E-05  0.00E+00  0.00E+00  0.00E+00  0.00E+00  7.33E-06  8.47E-05  1.10E-03  0.00000
    342.   29.240  7.25E-06  8.48E-05  0.00E+00  0.00E+00  0.00E+00  0.00E+00  7.25E-06  8.48E-05  1.11E-03  0.00000
    344.   29.070  7.55E-06  8.94E-05  0.00E+00  0.00E+00  0.00E+00  0.00E+00  7.55E-06  8.94E-05  1.13E-03  0.00000
    346.   28.902  7.70E-06  9.21E-05  0.00E+00  0.00E+00  0.00E+00  0.00E+00  7.70E-06  9.21E-05  1.14E-03  0.00000
    348.   28.736  7.47E-06  9.04E-05  0.00E+00  0.00E+00  0.00E+00  0.00E+00  7.47E-06  9.04E-05  1.16E-03  0.00000
    350.   28.571  6.94E-06  8.50E-05  0.00E+00  0.00E+00  0.00E+00  0.00E+00  6.94E-06  8.50E-05  1.17E-03  0.00000
    352.   28.409  6.85E-06  8.48E-05  0.00E+00  0.00E+00  0.00E+00  0.00E+00  6.85E-06  8.48E-05  1.18E-03  0.00000
    354.   28.249  6.94E-06  8.70E-05  0.00E+00  0.00E+00  0.00E+00  0.00E+00  6.94E-06  8.70E-05  1.20E-03  0.00000
    356.   28.090  7.03E-06  8.91E-05  0.00E+00  0.00E+00  0.00E+00  0.00E+00  7.03E-06  8.91E-05  1.21E-03  0.00000
    358.   27.933  7.31E-06  9.36E-05  0.00E+00  0.00E+00  0.00E+00  0.00E+00  7.31E-06  9.36E-05  1.23E-03  0.00000
    360.   27.778  8.08E-06  1.05E-04  0.00E+00  0.00E+00  0.00E+00  0.00E+00  8.08E-06  1.05E-04  1.24E-03  0.00000
    362.   27.624  8.41E-06  1.10E-04  0.00E+00  0.00E+00  0.00E+00  0.00E+00  8.41E-06  1.10E-04  1.26E-03  0.00000
    364.   27.473  8.55E-06  1.13E-04  0.00E+00  0.00E+00  0.00E+00  0.00E+00  8.55E-06  1.13E-04  1.28E-03  0.00000
    366.   27.322  8.65E-06  1.16E-04  0.00E+00  0.00E+00  0.00E+00  0.00E+00  8.65E-06  1.16E-04  1.29E-03  0.00000
    368.   27.174  8.20E-06  1.11E-04  0.00E+00  0.00E+00  0.00E+00  0.00E+00  8.20E-06  1.11E-04  1.31E-03  0.00000
    370.   27.027  7.78E-06  1.07E-04  0.00E+00  0.00E+00  0.00E+00  0.00E+00  7.78E-06  1.07E-04  1.33E-03  0.00000
    372.   26.882  8.11E-06  1.12E-04  0.00E+00  0.00E+00  0.00E+00  0.00E+00  8.11E-06  1.12E-04  1.34E-03  0.00000
    374.   26.738  7.56E-06  1.06E-04  0.00E+00  0.00E+00  0.00E+00  0.00E+00  7.56E-06  1.06E-04  1.36E-03  0.00000
    376.   26.596  7.54E-06  1.07E-04  0.00E+00  0.00E+00  0.00E+00  0.00E+00  7.54E-06  1.07E-04  1.37E-03  0.00000
    378.   26.455  8.38E-06  1.20E-04  0.00E+00  0.00E+00  0.00E+00  0.00E+00  8.38E-06  1.20E-04  1.39E-03  0.00000
    380.   26.316  8.81E-06  1.27E-04  0.00E+00  0.00E+00  0.00E+00  0.00E+00  8.81E-06  1.27E-04  1.41E-03  0.00000
    382.   26.178  8.73E-06  1.27E-04  0.00E+00  0.00E+00  0.00E+00  0.00E+00  8.73E-06  1.27E-04  1.42E-03  0.00000
    384.   26.042  7.94E-06  1.17E-04  0.00E+00  0.00E+00  0.00E+00  0.00E+00  7.94E-06  1.17E-04  1.44E-03  0.00000
    386.   25.907  7.97E-06  1.19E-04  7.66E-40  1.14E-38  0.00E+00  0.00E+00  7.97E-06  1.19E-04  1.46E-03  0.00000
    388.   25.773  8.97E-06  1.35E-04  6.21E-37  9.34E-36  0.00E+00  0.00E+00  8.97E-06  1.35E-04  1.47E-03  0.00000
    390.   25.641  9.28E-06  1.41E-04  1.07E-36  1.63E-35  0.00E+00  0.00E+00  9.28E-06  1.41E-04  1.49E-03  0.00000
    392.   25.510  9.06E-06  1.39E-04  2.76E-37  4.24E-36  0.00E+00  0.00E+00  9.06E-06  1.39E-04  1.51E-03  0.00000
    394.   25.381  8.30E-06  1.29E-04  4.90E-44  7.61E-43  0.00E+00  0.00E+00  8.30E-06  1.29E-04  1.53E-03  0.00000
    396.   25.253  7.63E-06  1.20E-04  0.00E+00  0.00E+00  0.00E+00  0.00E+00  7.63E-06  1.20E-04  1.54E-03  0.00000
    398.   25.126  7.47E-06  1.18E-04  0.00E+00  0.00E+00  0.00E+00  0.00E+00  7.47E-06  1.18E-04  1.56E-03  0.00000
    400.   25.000  8.13E-06  1.30E-04  6.03E-43  9.64E-42  0.00E+00  0.00E+00  8.13E-06  1.30E-04  1.57E-03  0.00000
  iv          405
1                                             RADIANCE(WATTS/CM2-STER-XXX)
0  FREQ   WAVLEN    PATH THERMAL      SURFACE EMISSION    SURFACE REFLECTED     TOTAL RADIANCE   INTEGRAL    TOTAL
  (CM-1) (MICRN)    (CM-1)   (MICRN)    (CM-1)   (MICRN)    (CM-1)   (MICRN)    (CM-1)   (MICRN)    (CM-1)   TRANS

    402.   24.876  9.23E-06  1.49E-04  6.47E-31  1.05E-29  0.00E+00  0.00E+00  9.23E-06  1.49E-04  1.59E-03  0.00000
    404.   24.752  9.64E-06  1.57E-04  5.03E-28  8.20E-27  0.00E+00  0.00E+00  9.64E-06  1.57E-04  1.61E-03  0.00000
    406.   24.631  9.78E-06  1.61E-04  3.56E-25  5.88E-24  0.00E+00  0.00E+00  9.78E-06  1.61E-04  1.63E-03  0.00000
    408.   24.510  9.97E-06  1.66E-04  1.72E-24  2.86E-23  0.00E+00  0.00E+00  9.97E-06  1.66E-04  1.65E-03  0.00000
    410.   24.390  1.00E-05  1.68E-04  2.37E-24  3.98E-23  0.00E+00  0.00E+00  1.00E-05  1.68E-04  1.67E-03  0.00000
    412.   24.272  1.00E-05  1.70E-04  1.30E-24  2.20E-23  0.00E+00  0.00E+00  1.00E-05  1.70E-04  1.69E-03  0.00000
    414.   24.155  9.76E-06  1.67E-04  1.05E-25  1.79E-24  0.00E+00  0.00E+00  9.76E-06  1.67E-04  1.71E-03  0.00000
    416.   24.038  9.07E-06  1.57E-04  5.14E-30  8.90E-29  0.00E+00  0.00E+00  9.07E-06  1.57E-04  1.73E-03  0.00000
    418.   23.923  7.88E-06  1.38E-04  0.00E+00  0.00E+00  0.00E+00  0.00E+00  7.88E-06  1.38E-04  1.74E-03  0.00000
    420.   23.810  7.94E-06  1.40E-04  0.00E+00  0.00E+00  0.00E+00  0.00E+00  7.94E-06  1.40E-04  1.76E-03  0.00000
    422.   23.697  8.75E-06  1.56E-04  2.58E-38  4.60E-37  0.00E+00  0.00E+00  8.75E-06  1.56E-04  1.78E-03  0.00000
    424.   23.585  8.97E-06  1.61E-04  2.08E-33  3.75E-32  0.00E+00  0.00E+00  8.97E-06  1.61E-04  1.79E-03  0.00000
    426.   23.474  9.35E-06  1.70E-04  2.60E-23  4.71E-22  0.00E+00  0.00E+00  9.35E-06  1.70E-04  1.81E-03  0.00000
    428.   23.364  1.01E-05  1.84E-04  2.20E-22  4.03E-21  0.00E+00  0.00E+00  1.01E-05  1.84E-04  1.83E-03  0.00000
    430.   23.256  9.80E-06  1.81E-04  4.74E-22  8.77E-21  0.00E+00  0.00E+00  9.80E-06  1.81E-04  1.85E-03  0.00000
    432.   23.148  9.75E-06  1.82E-04  1.32E-21  2.47E-20  0.00E+00  0.00E+00  9.75E-06  1.82E-04  1.87E-03  0.00000
    434.   23.041  9.98E-06  1.88E-04  1.03E-21  1.94E-20  0.00E+00  0.00E+00  9.98E-06  1.88E-04  1.89E-03  0.00000
    436.   22.936  9.74E-06  1.85E-04  1.24E-21  2.35E-20  0.00E+00  0.00E+00  9.74E-06  1.85E-04  1.91E-03  0.00000
    438.   22.831  1.03E-05  1.98E-04  2.37E-20  4.55E-19  0.00E+00  0.00E+00  1.03E-05  1.98E-04  1.93E-03  0.00000
    440.   22.727  1.00E-05  1.94E-04  2.17E-20  4.20E-19  0.00E+00  0.00E+00  1.00E-05  1.94E-04  1.95E-03  0.00000
    442.   22.624  8.92E-06  1.74E-04  2.02E-22  3.96E-21  0.00E+00  0.00E+00  8.92E-06  1.74E-04  1.97E-03  0.00000
    444.   22.523  9.34E-06  1.84E-04  3.56E-25  7.01E-24  0.00E+00  0.00E+00  9.34E-06  1.84E-04  1.99E-03  0.00000
    446.   22.422  9.86E-06  1.96E-04  5.44E-22  1.08E-20  0.00E+00  0.00E+00  9.86E-06  1.96E-04  2.01E-03  0.00000
    448.   22.321  1.03E-05  2.08E-04  2.11E-18  4.23E-17  0.00E+00  0.00E+00  1.03E-05  2.08E-04  2.03E-03  0.00000
    450.   22.222  1.06E-05  2.15E-04  2.16E-18  4.38E-17  0.00E+00  0.00E+00  1.06E-05  2.15E-04  2.05E-03  0.00000
    452.   22.124  9.95E-06  2.03E-04  3.57E-20  7.29E-19  0.00E+00  0.00E+00  9.95E-06  2.03E-04  2.07E-03  0.00000
    454.   22.026  9.90E-06  2.04E-04  6.27E-21  1.29E-19  0.00E+00  0.00E+00  9.90E-06  2.04E-04  2.09E-03  0.00000
    456.   21.930  9.26E-06  1.93E-04  5.36E-27  1.11E-25  0.00E+00  0.00E+00  9.26E-06  1.93E-04  2.11E-03  0.00000
    458.   21.834  8.64E-06  1.81E-04  1.13E-26  2.36E-25  0.00E+00  0.00E+00  8.64E-06  1.81E-04  2.13E-03  0.00000
    460.   21.739  9.80E-06  2.07E-04  5.58E-23  1.18E-21  0.00E+00  0.00E+00  9.80E-06  2.07E-04  2.15E-03  0.00000
    462.   21.645  1.06E-05  2.26E-04  1.43E-16  3.05E-15  0.00E+00  0.00E+00  1.06E-05  2.26E-04  2.17E-03  0.00000
    464.   21.552  1.11E-05  2.39E-04  1.82E-15  3.92E-14  0.00E+00  0.00E+00  1.11E-05  2.39E-04  2.19E-03  0.00000
    466.   21.459  1.08E-05  2.34E-04  1.60E-15  3.47E-14  0.00E+00  0.00E+00  1.08E-05  2.34E-04  2.21E-03  0.00000
    468.   21.368  1.02E-05  2.23E-04  2.17E-17  4.75E-16  0.00E+00  0.00E+00  1.02E-05  2.23E-04  2.23E-03  0.00000
    470.   21.277  1.00E-05  2.21E-04  5.73E-21  1.27E-19  0.00E+00  0.00E+00  1.00E-05  2.21E-04  2.25E-03  0.00000
    472.   21.186  8.99E-06  2.00E-04  5.96E-22  1.33E-20  0.00E+00  0.00E+00  8.99E-06  2.00E-04  2.27E-03  0.00000
    474.   21.097  9.63E-06  2.16E-04  2.29E-18  5.15E-17  0.00E+00  0.00E+00  9.63E-06  2.16E-04  2.29E-03  0.00000
    476.   21.008  1.09E-05  2.46E-04  3.04E-14  6.89E-13  0.00E+00  0.00E+00  1.09E-05  2.46E-04  2.31E-03  0.00000
    478.   20.921  1.14E-05  2.61E-04  1.93E-13  4.41E-12  0.00E+00  0.00E+00  1.14E-05  2.61E-04  2.33E-03  0.00000
    480.   20.833  1.13E-05  2.60E-04  1.63E-13  3.76E-12  0.00E+00  0.00E+00  1.13E-05  2.60E-04  2.36E-03  0.00000
    482.   20.747  1.05E-05  2.43E-04  1.79E-14  4.16E-13  0.00E+00  0.00E+00  1.05E-05  2.43E-04  2.38E-03  0.00000
    484.   20.661  9.73E-06  2.28E-04  6.59E-15  1.54E-13  0.00E+00  0.00E+00  9.73E-06  2.28E-04  2.40E-03  0.00000
    486.   20.576  1.06E-05  2.51E-04  1.93E-13  4.56E-12  0.00E+00  0.00E+00  1.06E-05  2.51E-04  2.42E-03  0.00000
    488.   20.492  1.15E-05  2.74E-04  1.09E-12  2.58E-11  0.00E+00  0.00E+00  1.15E-05  2.74E-04  2.44E-03  0.00000
    490.   20.408  1.13E-05  2.71E-04  7.79E-13  1.87E-11  0.00E+00  0.00E+00  1.13E-05  2.71E-04  2.46E-03  0.00000
    492.   20.325  1.04E-05  2.52E-04  4.47E-14  1.08E-12  0.00E+00  0.00E+00  1.04E-05  2.52E-04  2.48E-03  0.00000
    494.   20.243  1.11E-05  2.71E-04  3.81E-12  9.30E-11  0.00E+00  0.00E+00  1.11E-05  2.71E-04  2.51E-03  0.00000
    496.   20.161  1.20E-05  2.95E-04  2.41E-11  5.92E-10  0.00E+00  0.00E+00  1.20E-05  2.95E-04  2.53E-03  0.00000
    498.   20.080  1.20E-05  2.98E-04  2.55E-11  6.32E-10  0.00E+00  0.00E+00  1.20E-05  2.98E-04  2.55E-03  0.00000
    500.   20.000  1.12E-05  2.81E-04  5.02E-12  1.26E-10  0.00E+00  0.00E+00  1.12E-05  2.81E-04  2.58E-03  0.00000
  iv          505
1                                             RADIANCE(WATTS/CM2-STER-XXX)
0  FREQ   WAVLEN    PATH THERMAL      SURFACE EMISSION    SURFACE REFLECTED     TOTAL RADIANCE   INTEGRAL    TOTAL
  (CM-1) (MICRN)    (CM-1)   (MICRN)    (CM-1)   (MICRN)    (CM-1)   (MICRN)    (CM-1)   (MICRN)    (CM-1)   TRANS

    502.   19.920  1.00E-05  2.52E-04  1.53E-14  3.85E-13  0.00E+00  0.00E+00  1.00E-05  2.52E-04  2.60E-03  0.00000
    504.   19.841  1.04E-05  2.63E-04  3.35E-16  8.52E-15  0.00E+00  0.00E+00  1.04E-05  2.63E-04  2.62E-03  0.00000
    506.   19.763  1.02E-05  2.60E-04  3.45E-14  8.83E-13  0.00E+00  0.00E+00  1.02E-05  2.60E-04  2.64E-03  0.00000
    508.   19.685  1.06E-05  2.73E-04  2.86E-13  7.37E-12  0.00E+00  0.00E+00  1.06E-05  2.73E-04  2.66E-03  0.00000
    510.   19.608  1.12E-05  2.92E-04  5.16E-13  1.34E-11  0.00E+00  0.00E+00  1.12E-05  2.92E-04  2.68E-03  0.00000
    512.   19.531  1.14E-05  2.99E-04  8.39E-12  2.20E-10  0.00E+00  0.00E+00  1.14E-05  2.99E-04  2.70E-03  0.00000
    514.   19.455  1.14E-05  3.02E-04  8.16E-12  2.16E-10  0.00E+00  0.00E+00  1.14E-05  3.02E-04  2.73E-03  0.00000
    516.   19.380  1.02E-05  2.72E-04  1.47E-13  3.91E-12  0.00E+00  0.00E+00  1.02E-05  2.72E-04  2.75E-03  0.00000
    518.   19.305  9.58E-06  2.57E-04  8.95E-16  2.40E-14  0.00E+00  0.00E+00  9.58E-06  2.57E-04  2.77E-03  0.00000
    520.   19.231  1.03E-05  2.78E-04  1.03E-12  2.79E-11  0.00E+00  0.00E+00  1.03E-05  2.78E-04  2.79E-03  0.00000
    522.   19.157  1.16E-05  3.15E-04  5.63E-12  1.53E-10  0.00E+00  0.00E+00  1.16E-05  3.15E-04  2.81E-03  0.00000
    524.   19.084  1.11E-05  3.05E-04  3.65E-12  1.00E-10  0.00E+00  0.00E+00  1.11E-05  3.05E-04  2.83E-03  0.00000
    526.   19.011  1.03E-05  2.86E-04  4.30E-12  1.19E-10  0.00E+00  0.00E+00  1.03E-05  2.86E-04  2.85E-03  0.00000
    528.   18.939  1.16E-05  3.24E-04  1.97E-10  5.51E-09  0.00E+00  0.00E+00  1.16E-05  3.24E-04  2.88E-03  0.00001
    530.   18.868  1.24E-05  3.49E-04  1.50E-09  4.22E-08  0.00E+00  0.00E+00  1.24E-05  3.49E-04  2.90E-03  0.00010
    532.   18.797  1.25E-05  3.53E-04  2.12E-09  5.99E-08  0.00E+00  0.00E+00  1.25E-05  3.53E-04  2.93E-03  0.00014
    534.   18.727  1.19E-05  3.41E-04  6.92E-10  1.97E-08  0.00E+00  0.00E+00  1.19E-05  3.41E-04  2.95E-03  0.00005
    536.   18.657  1.13E-05  3.24E-04  2.14E-10  6.16E-09  0.00E+00  0.00E+00  1.13E-05  3.24E-04  2.97E-03  0.00001
    538.   18.587  1.20E-05  3.47E-04  1.56E-09  4.52E-08  0.00E+00  0.00E+00  1.20E-05  3.47E-04  3.00E-03  0.00010
    540.   18.519  1.21E-05  3.52E-04  1.64E-09  4.80E-08  0.00E+00  0.00E+00  1.21E-05  3.52E-04  3.02E-03  0.00011
    542.   18.450  1.19E-05  3.51E-04  6.85E-10  2.01E-08  0.00E+00  0.00E+00  1.19E-05  3.51E-04  3.04E-03  0.00005
    544.   18.382  1.12E-05  3.32E-04  4.61E-10  1.36E-08  0.00E+00  0.00E+00  1.12E-05  3.32E-04  3.07E-03  0.00003
    546.   18.315  1.02E-05  3.04E-04  5.00E-12  1.49E-10  0.00E+00  0.00E+00  1.02E-05  3.04E-04  3.09E-03  0.00000
    548.   18.248  1.09E-05  3.27E-04  3.48E-11  1.05E-09  0.00E+00  0.00E+00  1.09E-05  3.27E-04  3.11E-03  0.00000
    550.   18.182  1.14E-05  3.43E-04  2.85E-10  8.63E-09  0.00E+00  0.00E+00  1.14E-05  3.43E-04  3.13E-03  0.00002
    552.   18.116  1.20E-05  3.66E-04  2.06E-09  6.27E-08  0.00E+00  0.00E+00  1.20E-05  3.66E-04  3.16E-03  0.00014
    554.   18.051  1.19E-05  3.64E-04  2.05E-09  6.31E-08  0.00E+00  0.00E+00  1.19E-05  3.65E-04  3.18E-03  0.00014
    556.   17.986  1.19E-05  3.67E-04  2.56E-09  7.91E-08  0.00E+00  0.00E+00  1.19E-05  3.67E-04  3.20E-03  0.00017
    558.   17.921  1.25E-05  3.89E-04  8.58E-09  2.67E-07  0.00E+00  0.00E+00  1.25E-05  3.89E-04  3.23E-03  0.00057
    560.   17.857  1.27E-05  3.99E-04  1.60E-08  5.01E-07  0.00E+00  0.00E+00  1.27E-05  3.99E-04  3.25E-03  0.00106
    562.   17.794  1.22E-05  3.85E-04  1.08E-08  3.41E-07  0.00E+00  0.00E+00  1.22E-05  3.85E-04  3.28E-03  0.00071
    564.   17.730  1.19E-05  3.78E-04  2.71E-09  8.62E-08  0.00E+00  0.00E+00  1.19E-05  3.78E-04  3.30E-03  0.00018
    566.   17.668  1.15E-05  3.67E-04  1.18E-09  3.77E-08  0.00E+00  0.00E+00  1.15E-05  3.67E-04  3.32E-03  0.00008
    568.   17.606  1.03E-05  3.34E-04  3.22E-11  1.04E-09  0.00E+00  0.00E+00  1.03E-05  3.34E-04  3.35E-03  0.00000
    570.   17.544  1.07E-05  3.47E-04  3.02E-11  9.83E-10  0.00E+00  0.00E+00  1.07E-05  3.47E-04  3.37E-03  0.00000
    572.   17.483  1.18E-05  3.86E-04  2.35E-09  7.69E-08  0.00E+00  0.00E+00  1.18E-05  3.86E-04  3.39E-03  0.00016
    574.   17.422  1.18E-05  3.89E-04  3.81E-09  1.26E-07  0.00E+00  0.00E+00  1.18E-05  3.89E-04  3.41E-03  0.00025
    576.   17.361  1.07E-05  3.56E-04  8.67E-10  2.88E-08  0.00E+00  0.00E+00  1.07E-05  3.56E-04  3.44E-03  0.00006
    578.   17.301  1.11E-05  3.70E-04  8.05E-10  2.69E-08  0.00E+00  0.00E+00  1.11E-05  3.70E-04  3.46E-03  0.00005
    580.   17.241  1.07E-05  3.59E-04  5.89E-10  1.98E-08  0.00E+00  0.00E+00  1.07E-05  3.59E-04  3.48E-03  0.00004
    582.   17.182  1.04E-05  3.52E-04  4.22E-10  1.43E-08  0.00E+00  0.00E+00  1.04E-05  3.52E-04  3.50E-03  0.00003
    584.   17.123  1.06E-05  3.60E-04  7.12E-10  2.43E-08  0.00E+00  0.00E+00  1.06E-05  3.60E-04  3.52E-03  0.00005
    586.   17.065  1.03E-05  3.54E-04  3.49E-09  1.20E-07  0.00E+00  0.00E+00  1.03E-05  3.55E-04  3.54E-03  0.00023
    588.   17.007  1.04E-05  3.59E-04  7.20E-09  2.49E-07  0.00E+00  0.00E+00  1.04E-05  3.59E-04  3.56E-03  0.00047
    590.   16.949  9.62E-06  3.35E-04  2.40E-09  8.34E-08  0.00E+00  0.00E+00  9.62E-06  3.35E-04  3.58E-03  0.00016
    592.   16.892  8.94E-06  3.13E-04  2.66E-11  9.33E-10  0.00E+00  0.00E+00  8.94E-06  3.13E-04  3.60E-03  0.00000
    594.   16.835  8.60E-06  3.04E-04  1.92E-11  6.79E-10  0.00E+00  0.00E+00  8.60E-06  3.04E-04  3.62E-03  0.00000
    596.   16.779  7.96E-06  2.83E-04  1.31E-10  4.64E-09  0.00E+00  0.00E+00  7.96E-06  2.83E-04  3.63E-03  0.00001
    598.   16.722  8.26E-06  2.95E-04  5.60E-10  2.00E-08  0.00E+00  0.00E+00  8.26E-06  2.95E-04  3.65E-03  0.00004
    600.   16.667  8.90E-06  3.21E-04  6.47E-10  2.33E-08  0.00E+00  0.00E+00  8.91E-06  3.21E-04  3.67E-03  0.00004
  iv          605
1                                             RADIANCE(WATTS/CM2-STER-XXX)
0  FREQ   WAVLEN    PATH THERMAL      SURFACE EMISSION    SURFACE REFLECTED     TOTAL RADIANCE   INTEGRAL    TOTAL
  (CM-1) (MICRN)    (CM-1)   (MICRN)    (CM-1)   (MICRN)    (CM-1)   (MICRN)    (CM-1)   (MICRN)    (CM-1)   TRANS

    602.   16.611  8.50E-06  3.08E-04  1.17E-09  4.24E-08  0.00E+00  0.00E+00  8.50E-06  3.08E-04  3.68E-03  0.00008
    604.   16.556  8.11E-06  2.96E-04  9.43E-10  3.44E-08  0.00E+00  0.00E+00  8.11E-06  2.96E-04  3.70E-03  0.00006
    606.   16.502  7.84E-06  2.88E-04  1.14E-09  4.20E-08  0.00E+00  0.00E+00  7.84E-06  2.88E-04  3.72E-03  0.00008
    608.   16.447  7.72E-06  2.86E-04  1.56E-09  5.77E-08  0.00E+00  0.00E+00  7.73E-06  2.86E-04  3.73E-03  0.00010
    610.   16.393  8.03E-06  2.99E-04  1.93E-09  7.19E-08  0.00E+00  0.00E+00  8.04E-06  2.99E-04  3.75E-03  0.00013
    612.   16.340  8.06E-06  3.02E-04  1.55E-09  5.80E-08  0.00E+00  0.00E+00  8.06E-06  3.02E-04  3.76E-03  0.00010
    614.   16.287  7.35E-06  2.77E-04  3.34E-10  1.26E-08  0.00E+00  0.00E+00  7.35E-06  2.77E-04  3.78E-03  0.00002
    616.   16.234  6.27E-06  2.38E-04  5.05E-11  1.92E-09  0.00E+00  0.00E+00  6.27E-06  2.38E-04  3.79E-03  0.00000
    618.   16.181  6.09E-06  2.33E-04  3.96E-12  1.51E-10  0.00E+00  0.00E+00  6.09E-06  2.33E-04  3.80E-03  0.00000
    620.   16.129  6.95E-06  2.67E-04  3.87E-11  1.49E-09  0.00E+00  0.00E+00  6.95E-06  2.67E-04  3.82E-03  0.00000
    622.   16.077  6.88E-06  2.66E-04  1.89E-10  7.31E-09  0.00E+00  0.00E+00  6.88E-06  2.66E-04  3.83E-03  0.00001
    624.   16.026  6.37E-06  2.48E-04  1.34E-10  5.21E-09  0.00E+00  0.00E+00  6.37E-06  2.48E-04  3.84E-03  0.00001
    626.   15.974  5.95E-06  2.33E-04  8.31E-13  3.26E-11  0.00E+00  0.00E+00  5.95E-06  2.33E-04  3.86E-03  0.00000
    628.   15.924  5.60E-06  2.21E-04  1.76E-12  6.94E-11  0.00E+00  0.00E+00  5.60E-06  2.21E-04  3.87E-03  0.00000
    630.   15.873  5.37E-06  2.13E-04  1.38E-12  5.46E-11  0.00E+00  0.00E+00  5.37E-06  2.13E-04  3.88E-03  0.00000
    632.   15.823  5.18E-06  2.07E-04  7.43E-14  2.97E-12  0.00E+00  0.00E+00  5.18E-06  2.07E-04  3.89E-03  0.00000
    634.   15.773  5.02E-06  2.02E-04  7.43E-15  2.99E-13  0.00E+00  0.00E+00  5.02E-06  2.02E-04  3.90E-03  0.00000
    636.   15.723  4.87E-06  1.97E-04  1.37E-17  5.54E-16  0.00E+00  0.00E+00  4.87E-06  1.97E-04  3.91E-03  0.00000
    638.   15.674  4.78E-06  1.95E-04  1.02E-19  4.15E-18  0.00E+00  0.00E+00  4.78E-06  1.95E-04  3.92E-03  0.00000
    640.   15.625  4.75E-06  1.94E-04  4.32E-21  1.77E-19  0.00E+00  0.00E+00  4.75E-06  1.94E-04  3.93E-03  0.00000
    642.   15.576  4.77E-06  1.97E-04  6.21E-22  2.56E-20  0.00E+00  0.00E+00  4.77E-06  1.97E-04  3.94E-03  0.00000
    644.   15.528  4.85E-06  2.01E-04  6.05E-25  2.51E-23  0.00E+00  0.00E+00  4.85E-06  2.01E-04  3.95E-03  0.00000
    646.   15.480  5.00E-06  2.09E-04  2.11E-27  8.80E-26  0.00E+00  0.00E+00  5.00E-06  2.09E-04  3.96E-03  0.00000
    648.   15.432  5.51E-06  2.31E-04  1.12E-28  4.70E-27  0.00E+00  0.00E+00  5.51E-06  2.31E-04  3.97E-03  0.00000
    650.   15.385  5.59E-06  2.36E-04  2.73E-33  1.15E-31  0.00E+00  0.00E+00  5.59E-06  2.36E-04  3.98E-03  0.00000
    652.   15.337  5.22E-06  2.22E-04  8.44E-33  3.59E-31  0.00E+00  0.00E+00  5.22E-06  2.22E-04  3.99E-03  0.00000
    654.   15.291  5.08E-06  2.17E-04  2.09E-27  8.93E-26  0.00E+00  0.00E+00  5.08E-06  2.17E-04  4.00E-03  0.00000
    656.   15.244  5.07E-06  2.18E-04  2.09E-27  8.98E-26  0.00E+00  0.00E+00  5.07E-06  2.18E-04  4.01E-03  0.00000
    658.   15.198  5.16E-06  2.23E-04  1.80E-32  7.77E-31  0.00E+00  0.00E+00  5.16E-06  2.23E-04  4.02E-03  0.00000
    660.   15.152  5.14E-06  2.24E-04  2.09E-32  9.13E-31  0.00E+00  0.00E+00  5.14E-06  2.24E-04  4.03E-03  0.00000
    662.   15.106  5.45E-06  2.39E-04  2.02E-32  8.84E-31  0.00E+00  0.00E+00  5.45E-06  2.39E-04  4.04E-03  0.00000
    664.   15.060  5.49E-06  2.42E-04  0.00E+00  0.00E+00  0.00E+00  0.00E+00  5.49E-06  2.42E-04  4.05E-03  0.00000
    666.   15.015  6.12E-06  2.71E-04  0.00E+00  0.00E+00  0.00E+00  0.00E+00  6.12E-06  2.71E-04  4.06E-03  0.00000
    668.   14.970  7.36E-06  3.28E-04  0.00E+00  0.00E+00  0.00E+00  0.00E+00  7.36E-06  3.28E-04  4.08E-03  0.00000
    670.   14.925  6.35E-06  2.85E-04  0.00E+00  0.00E+00  0.00E+00  0.00E+00  6.35E-06  2.85E-04  4.09E-03  0.00000
    672.   14.881  5.32E-06  2.40E-04  7.28E-38  3.29E-36  0.00E+00  0.00E+00  5.32E-06  2.40E-04  4.10E-03  0.00000
    674.   14.837  5.13E-06  2.33E-04  4.61E-32  2.09E-30  0.00E+00  0.00E+00  5.13E-06  2.33E-04  4.11E-03  0.00000
    676.   14.793  5.03E-06  2.30E-04  1.38E-31  6.31E-30  0.00E+00  0.00E+00  5.03E-06  2.30E-04  4.12E-03  0.00000
    678.   14.749  5.13E-06  2.36E-04  4.61E-32  2.12E-30  0.00E+00  0.00E+00  5.13E-06  2.36E-04  4.13E-03  0.00000
    680.   14.706  5.09E-06  2.36E-04  6.65E-38  3.07E-36  0.00E+00  0.00E+00  5.09E-06  2.36E-04  4.14E-03  0.00000
    682.   14.663  5.01E-06  2.33E-04  3.62E-30  1.68E-28  0.00E+00  0.00E+00  5.01E-06  2.33E-04  4.15E-03  0.00000
    684.   14.620  4.78E-06  2.24E-04  1.21E-29  5.66E-28  0.00E+00  0.00E+00  4.78E-06  2.24E-04  4.16E-03  0.00000
    686.   14.577  4.72E-06  2.22E-04  7.32E-30  3.44E-28  0.00E+00  0.00E+00  4.72E-06  2.22E-04  4.17E-03  0.00000
    688.   14.535  4.69E-06  2.22E-04  1.32E-30  6.27E-29  0.00E+00  0.00E+00  4.69E-06  2.22E-04  4.18E-03  0.00000
    690.   14.493  4.58E-06  2.18E-04  2.72E-22  1.30E-20  0.00E+00  0.00E+00  4.58E-06  2.18E-04  4.19E-03  0.00000
    692.   14.451  4.30E-06  2.06E-04  9.35E-22  4.48E-20  0.00E+00  0.00E+00  4.30E-06  2.06E-04  4.20E-03  0.00000
    694.   14.409  4.27E-06  2.06E-04  6.90E-22  3.32E-20  0.00E+00  0.00E+00  4.27E-06  2.06E-04  4.21E-03  0.00000
    696.   14.368  4.22E-06  2.04E-04  1.38E-20  6.70E-19  0.00E+00  0.00E+00  4.22E-06  2.04E-04  4.22E-03  0.00000
    698.   14.327  4.27E-06  2.08E-04  1.36E-15  6.61E-14  0.00E+00  0.00E+00  4.27E-06  2.08E-04  4.22E-03  0.00000
    700.   14.286  4.33E-06  2.12E-04  4.15E-15  2.03E-13  0.00E+00  0.00E+00  4.33E-06  2.12E-04  4.23E-03  0.00000
  iv          705
1                                             RADIANCE(WATTS/CM2-STER-XXX)
0  FREQ   WAVLEN    PATH THERMAL      SURFACE EMISSION    SURFACE REFLECTED     TOTAL RADIANCE   INTEGRAL    TOTAL
  (CM-1) (MICRN)    (CM-1)   (MICRN)    (CM-1)   (MICRN)    (CM-1)   (MICRN)    (CM-1)   (MICRN)    (CM-1)   TRANS

    702.   14.245  4.40E-06  2.17E-04  1.67E-15  8.22E-14  0.00E+00  0.00E+00  4.40E-06  2.17E-04  4.24E-03  0.00000
    704.   14.205  4.67E-06  2.32E-04  4.41E-15  2.19E-13  0.00E+00  0.00E+00  4.67E-06  2.32E-04  4.25E-03  0.00000
    706.   14.164  4.98E-06  2.48E-04  2.76E-13  1.38E-11  0.00E+00  0.00E+00  4.98E-06  2.48E-04  4.26E-03  0.00000
    708.   14.124  5.18E-06  2.60E-04  2.25E-11  1.13E-09  0.00E+00  0.00E+00  5.18E-06  2.60E-04  4.27E-03  0.00000
    710.   14.085  5.35E-06  2.70E-04  1.84E-10  9.30E-09  0.00E+00  0.00E+00  5.35E-06  2.70E-04  4.28E-03  0.00001
    712.   14.045  5.66E-06  2.87E-04  3.95E-10  2.00E-08  0.00E+00  0.00E+00  5.66E-06  2.87E-04  4.29E-03  0.00003
    714.   14.006  5.96E-06  3.04E-04  8.19E-10  4.18E-08  0.00E+00  0.00E+00  5.97E-06  3.04E-04  4.30E-03  0.00006
    716.   13.966  6.06E-06  3.11E-04  1.82E-09  9.32E-08  0.00E+00  0.00E+00  6.06E-06  3.11E-04  4.32E-03  0.00013
    718.   13.928  5.37E-06  2.77E-04  8.55E-10  4.41E-08  0.00E+00  0.00E+00  5.37E-06  2.77E-04  4.33E-03  0.00006
    720.   13.889  4.79E-06  2.48E-04  1.74E-11  9.03E-10  0.00E+00  0.00E+00  4.79E-06  2.48E-04  4.34E-03  0.00000
    722.   13.850  6.03E-06  3.14E-04  1.05E-08  5.49E-07  0.00E+00  0.00E+00  6.04E-06  3.15E-04  4.35E-03  0.00073
    724.   13.812  7.15E-06  3.75E-04  4.98E-08  2.61E-06  0.00E+00  0.00E+00  7.20E-06  3.77E-04  4.36E-03  0.00347
    726.   13.774  7.64E-06  4.03E-04  9.89E-08  5.21E-06  0.00E+00  0.00E+00  7.74E-06  4.08E-04  4.38E-03  0.00690
    728.   13.736  7.35E-06  3.89E-04  5.41E-08  2.87E-06  0.00E+00  0.00E+00  7.40E-06  3.92E-04  4.39E-03  0.00378
    730.   13.699  6.80E-06  3.62E-04  1.55E-08  8.28E-07  0.00E+00  0.00E+00  6.82E-06  3.63E-04  4.41E-03  0.00109
    732.   13.661  6.76E-06  3.62E-04  2.38E-08  1.27E-06  0.00E+00  0.00E+00  6.79E-06  3.64E-04  4.42E-03  0.00167
    734.   13.624  6.90E-06  3.72E-04  3.46E-08  1.86E-06  0.00E+00  0.00E+00  6.93E-06  3.73E-04  4.44E-03  0.00243
    736.   13.587  6.92E-06  3.75E-04  3.70E-08  2.00E-06  0.00E+00  0.00E+00  6.96E-06  3.77E-04  4.45E-03  0.00260
    738.   13.550  6.85E-06  3.73E-04  2.65E-08  1.44E-06  0.00E+00  0.00E+00  6.87E-06  3.74E-04  4.46E-03  0.00187
    740.   13.514  6.40E-06  3.51E-04  8.70E-09  4.76E-07  0.00E+00  0.00E+00  6.41E-06  3.51E-04  4.48E-03  0.00061
    742.   13.477  6.64E-06  3.65E-04  3.65E-08  2.01E-06  0.00E+00  0.00E+00  6.67E-06  3.67E-04  4.49E-03  0.00259
    744.   13.441  7.88E-06  4.36E-04  1.06E-07  5.85E-06  0.00E+00  0.00E+00  7.99E-06  4.42E-04  4.50E-03  0.00749
    746.   13.405  8.36E-06  4.65E-04  2.28E-07  1.27E-05  0.00E+00  0.00E+00  8.59E-06  4.78E-04  4.52E-03  0.01620
    748.   13.369  8.56E-06  4.79E-04  2.87E-07  1.61E-05  0.00E+00  0.00E+00  8.85E-06  4.95E-04  4.54E-03  0.02043
    750.   13.333  8.75E-06  4.92E-04  3.80E-07  2.14E-05  0.00E+00  0.00E+00  9.13E-06  5.13E-04  4.56E-03  0.02708
    752.   13.298  8.98E-06  5.08E-04  4.06E-07  2.30E-05  0.00E+00  0.00E+00  9.39E-06  5.31E-04  4.58E-03  0.02898
    754.   13.263  9.12E-06  5.18E-04  2.85E-07  1.62E-05  0.00E+00  0.00E+00  9.40E-06  5.35E-04  4.60E-03  0.02039
    756.   13.228  9.17E-06  5.24E-04  4.73E-07  2.70E-05  0.00E+00  0.00E+00  9.64E-06  5.51E-04  4.61E-03  0.03392
    758.   13.193  9.28E-06  5.33E-04  1.15E-06  6.62E-05  0.00E+00  0.00E+00  1.04E-05  6.00E-04  4.64E-03  0.08273
    760.   13.158  9.55E-06  5.51E-04  1.55E-06  8.94E-05  0.00E+00  0.00E+00  1.11E-05  6.41E-04  4.66E-03  0.11134
    762.   13.123  9.54E-06  5.54E-04  1.90E-06  1.10E-04  0.00E+00  0.00E+00  1.14E-05  6.64E-04  4.68E-03  0.13675
    764.   13.089  9.40E-06  5.49E-04  2.31E-06  1.35E-04  0.00E+00  0.00E+00  1.17E-05  6.84E-04  4.70E-03  0.16714
    766.   13.055  9.51E-06  5.58E-04  2.37E-06  1.39E-04  0.00E+00  0.00E+00  1.19E-05  6.97E-04  4.73E-03  0.17126
    768.   13.021  9.74E-06  5.74E-04  2.03E-06  1.20E-04  0.00E+00  0.00E+00  1.18E-05  6.94E-04  4.75E-03  0.14729
    770.   12.987  9.76E-06  5.79E-04  1.98E-06  1.17E-04  0.00E+00  0.00E+00  1.17E-05  6.96E-04  4.78E-03  0.14391
    772.   12.953  9.33E-06  5.56E-04  2.84E-06  1.69E-04  0.00E+00  0.00E+00  1.22E-05  7.26E-04  4.80E-03  0.20680
    774.   12.920  9.44E-06  5.66E-04  2.70E-06  1.62E-04  0.00E+00  0.00E+00  1.21E-05  7.28E-04  4.82E-03  0.19707
    776.   12.887  9.91E-06  5.97E-04  1.69E-06  1.02E-04  0.00E+00  0.00E+00  1.16E-05  6.98E-04  4.85E-03  0.12330
    778.   12.853  9.69E-06  5.87E-04  2.05E-06  1.24E-04  0.00E+00  0.00E+00  1.17E-05  7.11E-04  4.87E-03  0.15030
    780.   12.821  9.23E-06  5.62E-04  2.98E-06  1.81E-04  0.00E+00  0.00E+00  1.22E-05  7.43E-04  4.89E-03  0.21847
    782.   12.788  9.07E-06  5.55E-04  3.07E-06  1.88E-04  0.00E+00  0.00E+00  1.21E-05  7.42E-04  4.92E-03  0.22576
    784.   12.755  9.58E-06  5.89E-04  2.01E-06  1.24E-04  0.00E+00  0.00E+00  1.16E-05  7.13E-04  4.94E-03  0.14834
    786.   12.723  9.16E-06  5.66E-04  2.93E-06  1.81E-04  0.00E+00  0.00E+00  1.21E-05  7.47E-04  4.97E-03  0.21657
    788.   12.690  8.51E-06  5.28E-04  3.96E-06  2.46E-04  0.00E+00  0.00E+00  1.25E-05  7.74E-04  4.99E-03  0.29346
    790.   12.658  8.48E-06  5.29E-04  3.40E-06  2.12E-04  0.00E+00  0.00E+00  1.19E-05  7.42E-04  5.02E-03  0.25252
    792.   12.626  8.88E-06  5.57E-04  1.89E-06  1.18E-04  0.00E+00  0.00E+00  1.08E-05  6.76E-04  5.04E-03  0.14018
    794.   12.594  9.67E-06  6.10E-04  1.37E-06  8.67E-05  0.00E+00  0.00E+00  1.10E-05  6.96E-04  5.06E-03  0.10244
    796.   12.563  9.79E-06  6.21E-04  1.36E-06  8.64E-05  0.00E+00  0.00E+00  1.12E-05  7.07E-04  5.08E-03  0.10189
    798.   12.531  9.66E-06  6.15E-04  1.31E-06  8.34E-05  0.00E+00  0.00E+00  1.10E-05  6.98E-04  5.10E-03  0.09805
    800.   12.500  8.99E-06  5.76E-04  2.45E-06  1.57E-04  0.00E+00  0.00E+00  1.14E-05  7.32E-04  5.13E-03  0.18406
  iv          805
1                                             RADIANCE(WATTS/CM2-STER-XXX)
0  FREQ   WAVLEN    PATH THERMAL      SURFACE EMISSION    SURFACE REFLECTED     TOTAL RADIANCE   INTEGRAL    TOTAL
  (CM-1) (MICRN)    (CM-1)   (MICRN)    (CM-1)   (MICRN)    (CM-1)   (MICRN)    (CM-1)   (MICRN)    (CM-1)   TRANS

    802.   12.469  8.91E-06  5.73E-04  2.93E-06  1.89E-04  0.00E+00  0.00E+00  1.18E-05  7.61E-04  5.15E-03  0.22035
    804.   12.438  9.09E-06  5.88E-04  2.48E-06  1.61E-04  0.00E+00  0.00E+00  1.16E-05  7.48E-04  5.17E-03  0.18730
    806.   12.407  8.67E-06  5.63E-04  3.14E-06  2.04E-04  0.00E+00  0.00E+00  1.18E-05  7.68E-04  5.20E-03  0.23753
    808.   12.376  8.75E-06  5.71E-04  2.94E-06  1.92E-04  0.00E+00  0.00E+00  1.17E-05  7.63E-04  5.22E-03  0.22291
    810.   12.346  8.09E-06  5.30E-04  3.93E-06  2.58E-04  0.00E+00  0.00E+00  1.20E-05  7.88E-04  5.24E-03  0.29863
    812.   12.315  7.95E-06  5.24E-04  4.13E-06  2.72E-04  0.00E+00  0.00E+00  1.21E-05  7.96E-04  5.27E-03  0.31423
    814.   12.285  8.70E-06  5.77E-04  2.99E-06  1.98E-04  0.00E+00  0.00E+00  1.17E-05  7.75E-04  5.29E-03  0.22807
    816.   12.255  8.22E-06  5.47E-04  3.65E-06  2.43E-04  0.00E+00  0.00E+00  1.19E-05  7.91E-04  5.32E-03  0.27951
    818.   12.225  7.43E-06  4.97E-04  4.76E-06  3.19E-04  0.00E+00  0.00E+00  1.22E-05  8.16E-04  5.34E-03  0.36483
    820.   12.195  7.30E-06  4.91E-04  4.90E-06  3.30E-04  0.00E+00  0.00E+00  1.22E-05  8.20E-04  5.36E-03  0.37661
    822.   12.165  7.26E-06  4.90E-04  4.93E-06  3.33E-04  0.00E+00  0.00E+00  1.22E-05  8.23E-04  5.39E-03  0.37948
    824.   12.136  7.46E-06  5.06E-04  4.60E-06  3.12E-04  0.00E+00  0.00E+00  1.21E-05  8.18E-04  5.41E-03  0.35479
    826.   12.107  7.95E-06  5.42E-04  3.89E-06  2.65E-04  0.00E+00  0.00E+00  1.18E-05  8.08E-04  5.44E-03  0.30095
    828.   12.077  8.12E-06  5.57E-04  3.56E-06  2.44E-04  0.00E+00  0.00E+00  1.17E-05  8.01E-04  5.46E-03  0.27657
    830.   12.048  7.25E-06  4.99E-04  4.74E-06  3.26E-04  0.00E+00  0.00E+00  1.20E-05  8.26E-04  5.48E-03  0.36848
    832.   12.019  6.89E-06  4.77E-04  5.20E-06  3.60E-04  0.00E+00  0.00E+00  1.21E-05  8.37E-04  5.51E-03  0.40585
    834.   11.990  6.94E-06  4.83E-04  5.10E-06  3.55E-04  0.00E+00  0.00E+00  1.20E-05  8.38E-04  5.53E-03  0.39900
    836.   11.962  7.11E-06  4.97E-04  4.85E-06  3.39E-04  0.00E+00  0.00E+00  1.20E-05  8.36E-04  5.56E-03  0.37997
    838.   11.933  7.22E-06  5.07E-04  4.61E-06  3.24E-04  0.00E+00  0.00E+00  1.18E-05  8.31E-04  5.58E-03  0.36240
    840.   11.905  7.77E-06  5.48E-04  3.77E-06  2.66E-04  0.00E+00  0.00E+00  1.15E-05  8.14E-04  5.60E-03  0.29669
    842.   11.876  7.27E-06  5.15E-04  4.42E-06  3.14E-04  0.00E+00  0.00E+00  1.17E-05  8.29E-04  5.63E-03  0.34957
    844.   11.848  6.66E-06  4.74E-04  5.20E-06  3.70E-04  0.00E+00  0.00E+00  1.19E-05  8.45E-04  5.65E-03  0.41194
    846.   11.820  6.54E-06  4.68E-04  5.30E-06  3.79E-04  0.00E+00  0.00E+00  1.18E-05  8.48E-04  5.67E-03  0.42103
    848.   11.792  6.81E-06  4.90E-04  4.88E-06  3.51E-04  0.00E+00  0.00E+00  1.17E-05  8.41E-04  5.70E-03  0.38848
    850.   11.765  7.58E-06  5.47E-04  3.67E-06  2.65E-04  0.00E+00  0.00E+00  1.12E-05  8.13E-04  5.72E-03  0.29305
    852.   11.737  8.26E-06  6.00E-04  2.60E-06  1.89E-04  0.00E+00  0.00E+00  1.09E-05  7.89E-04  5.74E-03  0.20830
    854.   11.710  8.02E-06  5.85E-04  3.07E-06  2.24E-04  0.00E+00  0.00E+00  1.11E-05  8.09E-04  5.76E-03  0.24650
    856.   11.682  6.90E-06  5.06E-04  4.60E-06  3.37E-04  0.00E+00  0.00E+00  1.15E-05  8.43E-04  5.79E-03  0.37065
    858.   11.655  6.34E-06  4.67E-04  5.36E-06  3.94E-04  0.00E+00  0.00E+00  1.17E-05  8.61E-04  5.81E-03  0.43222
    860.   11.628  6.33E-06  4.68E-04  5.33E-06  3.94E-04  0.00E+00  0.00E+00  1.17E-05  8.63E-04  5.83E-03  0.43141
    862.   11.601  6.09E-06  4.53E-04  5.59E-06  4.15E-04  0.00E+00  0.00E+00  1.17E-05  8.68E-04  5.86E-03  0.45326
    864.   11.574  6.53E-06  4.88E-04  4.94E-06  3.69E-04  0.00E+00  0.00E+00  1.15E-05  8.57E-04  5.88E-03  0.40193
    866.   11.547  6.54E-06  4.90E-04  4.90E-06  3.68E-04  0.00E+00  0.00E+00  1.14E-05  8.58E-04  5.90E-03  0.40025
    868.   11.521  5.93E-06  4.47E-04  5.67E-06  4.27E-04  0.00E+00  0.00E+00  1.16E-05  8.74E-04  5.93E-03  0.46391
    870.   11.494  6.25E-06  4.73E-04  5.14E-06  3.89E-04  0.00E+00  0.00E+00  1.14E-05  8.62E-04  5.95E-03  0.42149
    872.   11.468  6.28E-06  4.78E-04  5.06E-06  3.85E-04  0.00E+00  0.00E+00  1.13E-05  8.63E-04  5.97E-03  0.41652
    874.   11.442  5.80E-06  4.43E-04  5.70E-06  4.36E-04  0.00E+00  0.00E+00  1.15E-05  8.78E-04  5.99E-03  0.47055
    876.   11.416  5.77E-06  4.43E-04  5.69E-06  4.37E-04  0.00E+00  0.00E+00  1.15E-05  8.80E-04  6.02E-03  0.47116
    878.   11.390  6.13E-06  4.72E-04  5.17E-06  3.98E-04  0.00E+00  0.00E+00  1.13E-05  8.71E-04  6.04E-03  0.42867
    880.   11.364  6.19E-06  4.80E-04  5.03E-06  3.89E-04  0.00E+00  0.00E+00  1.12E-05  8.69E-04  6.06E-03  0.41846
    882.   11.338  6.12E-06  4.76E-04  5.10E-06  3.97E-04  0.00E+00  0.00E+00  1.12E-05  8.73E-04  6.08E-03  0.42548
    884.   11.312  6.26E-06  4.89E-04  4.85E-06  3.79E-04  0.00E+00  0.00E+00  1.11E-05  8.68E-04  6.11E-03  0.40597
    886.   11.287  6.17E-06  4.84E-04  4.87E-06  3.82E-04  0.00E+00  0.00E+00  1.10E-05  8.66E-04  6.13E-03  0.40852
    888.   11.261  6.38E-06  5.03E-04  4.58E-06  3.61E-04  0.00E+00  0.00E+00  1.10E-05  8.64E-04  6.15E-03  0.38562
    890.   11.236  6.13E-06  4.85E-04  4.94E-06  3.91E-04  0.00E+00  0.00E+00  1.11E-05  8.77E-04  6.17E-03  0.41721
    892.   11.211  5.57E-06  4.43E-04  5.59E-06  4.45E-04  0.00E+00  0.00E+00  1.12E-05  8.88E-04  6.19E-03  0.47390
    894.   11.186  5.27E-06  4.21E-04  5.93E-06  4.74E-04  0.00E+00  0.00E+00  1.12E-05  8.95E-04  6.22E-03  0.50404
    896.   11.161  5.35E-06  4.30E-04  5.79E-06  4.65E-04  0.00E+00  0.00E+00  1.11E-05  8.95E-04  6.24E-03  0.49356
    898.   11.136  5.41E-06  4.36E-04  5.68E-06  4.58E-04  0.00E+00  0.00E+00  1.11E-05  8.94E-04  6.26E-03  0.48547
    900.   11.111  5.18E-06  4.19E-04  5.92E-06  4.79E-04  0.00E+00  0.00E+00  1.11E-05  8.99E-04  6.28E-03  0.50731
  iv          905
1                                             RADIANCE(WATTS/CM2-STER-XXX)
0  FREQ   WAVLEN    PATH THERMAL      SURFACE EMISSION    SURFACE REFLECTED     TOTAL RADIANCE   INTEGRAL    TOTAL
  (CM-1) (MICRN)    (CM-1)   (MICRN)    (CM-1)   (MICRN)    (CM-1)   (MICRN)    (CM-1)   (MICRN)    (CM-1)   TRANS

    902.   11.086  5.10E-06  4.15E-04  5.97E-06  4.86E-04  0.00E+00  0.00E+00  1.11E-05  9.01E-04  6.31E-03  0.51339
    904.   11.062  5.22E-06  4.27E-04  5.78E-06  4.72E-04  0.00E+00  0.00E+00  1.10E-05  8.99E-04  6.33E-03  0.49834
    906.   11.038  5.55E-06  4.55E-04  5.33E-06  4.38E-04  0.00E+00  0.00E+00  1.09E-05  8.93E-04  6.35E-03  0.46121
    908.   11.013  5.96E-06  4.91E-04  4.70E-06  3.87E-04  0.00E+00  0.00E+00  1.07E-05  8.79E-04  6.37E-03  0.40778
    910.   10.989  5.78E-06  4.79E-04  4.87E-06  4.03E-04  0.00E+00  0.00E+00  1.07E-05  8.82E-04  6.39E-03  0.42410
    912.   10.965  5.16E-06  4.29E-04  5.67E-06  4.72E-04  0.00E+00  0.00E+00  1.08E-05  9.01E-04  6.41E-03  0.49521
    914.   10.941  5.17E-06  4.32E-04  5.61E-06  4.69E-04  0.00E+00  0.00E+00  1.08E-05  9.01E-04  6.44E-03  0.49173
    916.   10.917  5.05E-06  4.24E-04  5.71E-06  4.79E-04  0.00E+00  0.00E+00  1.08E-05  9.03E-04  6.46E-03  0.50170
    918.   10.893  5.14E-06  4.33E-04  5.56E-06  4.69E-04  0.00E+00  0.00E+00  1.07E-05  9.02E-04  6.48E-03  0.49030
    920.   10.870  5.27E-06  4.46E-04  5.33E-06  4.51E-04  0.00E+00  0.00E+00  1.06E-05  8.97E-04  6.50E-03  0.47086
    922.   10.846  5.65E-06  4.81E-04  4.74E-06  4.03E-04  0.00E+00  0.00E+00  1.04E-05  8.84E-04  6.52E-03  0.42092
    924.   10.823  5.50E-06  4.69E-04  4.91E-06  4.19E-04  0.00E+00  0.00E+00  1.04E-05  8.88E-04  6.54E-03  0.43663
    926.   10.799  5.13E-06  4.40E-04  5.33E-06  4.57E-04  0.00E+00  0.00E+00  1.05E-05  8.98E-04  6.56E-03  0.47633
    928.   10.776  4.83E-06  4.16E-04  5.72E-06  4.92E-04  0.00E+00  0.00E+00  1.05E-05  9.08E-04  6.58E-03  0.51207
    930.   10.753  4.80E-06  4.15E-04  5.70E-06  4.93E-04  0.00E+00  0.00E+00  1.05E-05  9.08E-04  6.60E-03  0.51229
    932.   10.730  4.66E-06  4.04E-04  5.83E-06  5.07E-04  0.00E+00  0.00E+00  1.05E-05  9.11E-04  6.63E-03  0.52583
    934.   10.707  4.60E-06  4.01E-04  5.86E-06  5.11E-04  0.00E+00  0.00E+00  1.05E-05  9.12E-04  6.65E-03  0.52949
    936.   10.684  4.60E-06  4.03E-04  5.81E-06  5.09E-04  0.00E+00  0.00E+00  1.04E-05  9.12E-04  6.67E-03  0.52708
    938.   10.661  4.59E-06  4.04E-04  5.78E-06  5.09E-04  0.00E+00  0.00E+00  1.04E-05  9.12E-04  6.69E-03  0.52623
    940.   10.638  4.71E-06  4.16E-04  5.55E-06  4.91E-04  0.00E+00  0.00E+00  1.03E-05  9.07E-04  6.71E-03  0.50712
    942.   10.616  4.74E-06  4.20E-04  5.44E-06  4.83E-04  0.00E+00  0.00E+00  1.02E-05  9.03E-04  6.73E-03  0.49830
    944.   10.593  4.72E-06  4.21E-04  5.43E-06  4.84E-04  0.00E+00  0.00E+00  1.02E-05  9.05E-04  6.75E-03  0.49919
    946.   10.571  4.91E-06  4.39E-04  5.12E-06  4.58E-04  0.00E+00  0.00E+00  1.00E-05  8.97E-04  6.77E-03  0.47211
    948.   10.549  5.14E-06  4.62E-04  4.69E-06  4.21E-04  0.00E+00  0.00E+00  9.82E-06  8.83E-04  6.79E-03  0.43357
    950.   10.526  4.61E-06  4.16E-04  5.39E-06  4.86E-04  0.00E+00  0.00E+00  1.00E-05  9.03E-04  6.81E-03  0.50035
    952.   10.504  4.52E-06  4.10E-04  5.52E-06  5.00E-04  0.00E+00  0.00E+00  1.00E-05  9.10E-04  6.83E-03  0.51401
    954.   10.482  4.82E-06  4.39E-04  5.09E-06  4.63E-04  0.00E+00  0.00E+00  9.91E-06  9.02E-04  6.85E-03  0.47532
    956.   10.460  4.63E-06  4.23E-04  5.30E-06  4.84E-04  0.00E+00  0.00E+00  9.92E-06  9.07E-04  6.87E-03  0.49693
    958.   10.438  4.32E-06  3.96E-04  5.70E-06  5.23E-04  0.00E+00  0.00E+00  1.00E-05  9.20E-04  6.89E-03  0.53658
    960.   10.417  4.32E-06  3.98E-04  5.71E-06  5.26E-04  0.00E+00  0.00E+00  1.00E-05  9.25E-04  6.91E-03  0.53918
    962.   10.395  4.03E-06  3.73E-04  6.02E-06  5.57E-04  0.00E+00  0.00E+00  1.00E-05  9.30E-04  6.93E-03  0.57004
    964.   10.373  3.98E-06  3.70E-04  5.98E-06  5.55E-04  0.00E+00  0.00E+00  9.96E-06  9.26E-04  6.95E-03  0.56812
    966.   10.352  4.29E-06  4.00E-04  5.51E-06  5.15E-04  0.00E+00  0.00E+00  9.80E-06  9.15E-04  6.97E-03  0.52609
    968.   10.331  4.21E-06  3.95E-04  5.53E-06  5.18E-04  0.00E+00  0.00E+00  9.74E-06  9.13E-04  6.99E-03  0.52906
    970.   10.309  4.36E-06  4.10E-04  5.28E-06  4.97E-04  0.00E+00  0.00E+00  9.64E-06  9.07E-04  7.01E-03  0.50708
    972.   10.288  4.80E-06  4.53E-04  4.64E-06  4.39E-04  0.00E+00  0.00E+00  9.44E-06  8.92E-04  7.03E-03  0.44754
    974.   10.267  4.65E-06  4.41E-04  4.80E-06  4.55E-04  0.00E+00  0.00E+00  9.45E-06  8.96E-04  7.04E-03  0.46412
    976.   10.246  4.67E-06  4.45E-04  4.68E-06  4.46E-04  0.00E+00  0.00E+00  9.36E-06  8.91E-04  7.06E-03  0.45464
    978.   10.225  4.20E-06  4.01E-04  5.28E-06  5.05E-04  0.00E+00  0.00E+00  9.48E-06  9.07E-04  7.08E-03  0.51489
    980.   10.204  3.81E-06  3.66E-04  5.74E-06  5.52E-04  0.00E+00  0.00E+00  9.56E-06  9.18E-04  7.10E-03  0.56165
    982.   10.183  3.83E-06  3.69E-04  5.67E-06  5.47E-04  0.00E+00  0.00E+00  9.50E-06  9.16E-04  7.12E-03  0.55608
    984.   10.163  3.75E-06  3.63E-04  5.74E-06  5.56E-04  0.00E+00  0.00E+00  9.49E-06  9.19E-04  7.14E-03  0.56546
    986.   10.142  3.47E-06  3.38E-04  6.02E-06  5.86E-04  0.00E+00  0.00E+00  9.50E-06  9.23E-04  7.16E-03  0.59534
    988.   10.121  3.38E-06  3.30E-04  6.04E-06  5.90E-04  0.00E+00  0.00E+00  9.42E-06  9.20E-04  7.18E-03  0.59935
    990.   10.101  3.37E-06  3.30E-04  5.97E-06  5.85E-04  0.00E+00  0.00E+00  9.33E-06  9.15E-04  7.20E-03  0.59392
    992.   10.081  3.26E-06  3.21E-04  5.96E-06  5.87E-04  0.00E+00  0.00E+00  9.22E-06  9.08E-04  7.21E-03  0.59568
    994.   10.060  3.22E-06  3.18E-04  5.89E-06  5.82E-04  0.00E+00  0.00E+00  9.11E-06  9.00E-04  7.23E-03  0.59023
    996.   10.040  3.19E-06  3.17E-04  5.76E-06  5.72E-04  0.00E+00  0.00E+00  8.96E-06  8.89E-04  7.25E-03  0.57983
    998.   10.020  3.46E-06  3.45E-04  5.25E-06  5.23E-04  0.00E+00  0.00E+00  8.71E-06  8.68E-04  7.27E-03  0.53018
   1000.   10.000  3.66E-06  3.66E-04  4.85E-06  4.85E-04  0.00E+00  0.00E+00  8.50E-06  8.50E-04  7.28E-03  0.49120
  iv         1005
1                                             RADIANCE(WATTS/CM2-STER-XXX)
0  FREQ   WAVLEN    PATH THERMAL      SURFACE EMISSION    SURFACE REFLECTED     TOTAL RADIANCE   INTEGRAL    TOTAL
  (CM-1) (MICRN)    (CM-1)   (MICRN)    (CM-1)   (MICRN)    (CM-1)   (MICRN)    (CM-1)   (MICRN)    (CM-1)   TRANS

   1002.    9.980  3.36E-06  3.37E-04  4.99E-06  5.01E-04  0.00E+00  0.00E+00  8.35E-06  8.39E-04  7.30E-03  0.50792
   1004.    9.960  3.39E-06  3.42E-04  4.76E-06  4.80E-04  0.00E+00  0.00E+00  8.15E-06  8.21E-04  7.32E-03  0.48569
   1006.    9.940  3.22E-06  3.26E-04  4.71E-06  4.76E-04  0.00E+00  0.00E+00  7.93E-06  8.02E-04  7.33E-03  0.48213
   1008.    9.921  3.22E-06  3.28E-04  4.55E-06  4.63E-04  0.00E+00  0.00E+00  7.78E-06  7.90E-04  7.35E-03  0.46829
   1010.    9.901  3.62E-06  3.70E-04  3.82E-06  3.89E-04  0.00E+00  0.00E+00  7.44E-06  7.59E-04  7.36E-03  0.39399
   1012.    9.881  3.55E-06  3.64E-04  3.61E-06  3.70E-04  0.00E+00  0.00E+00  7.16E-06  7.34E-04  7.38E-03  0.37432
   1014.    9.862  3.49E-06  3.59E-04  3.44E-06  3.54E-04  0.00E+00  0.00E+00  6.94E-06  7.13E-04  7.39E-03  0.35785
   1016.    9.843  3.39E-06  3.50E-04  3.42E-06  3.53E-04  0.00E+00  0.00E+00  6.81E-06  7.02E-04  7.41E-03  0.35660
   1018.    9.823  3.38E-06  3.51E-04  3.12E-06  3.24E-04  0.00E+00  0.00E+00  6.51E-06  6.74E-04  7.42E-03  0.32736
   1020.    9.804  3.04E-06  3.17E-04  3.32E-06  3.45E-04  0.00E+00  0.00E+00  6.36E-06  6.62E-04  7.43E-03  0.34914
   1022.    9.785  2.88E-06  3.01E-04  3.33E-06  3.48E-04  0.00E+00  0.00E+00  6.21E-06  6.49E-04  7.44E-03  0.35158
   1024.    9.766  2.79E-06  2.92E-04  3.32E-06  3.48E-04  0.00E+00  0.00E+00  6.11E-06  6.40E-04  7.46E-03  0.35181
   1026.    9.747  2.85E-06  3.00E-04  3.22E-06  3.39E-04  0.00E+00  0.00E+00  6.07E-06  6.39E-04  7.47E-03  0.34286
   1028.    9.728  3.30E-06  3.48E-04  2.55E-06  2.70E-04  0.00E+00  0.00E+00  5.85E-06  6.18E-04  7.48E-03  0.27220
   1030.    9.709  3.32E-06  3.52E-04  2.42E-06  2.57E-04  0.00E+00  0.00E+00  5.74E-06  6.09E-04  7.49E-03  0.25952
   1032.    9.690  2.97E-06  3.16E-04  2.90E-06  3.09E-04  0.00E+00  0.00E+00  5.86E-06  6.24E-04  7.50E-03  0.31176
   1034.    9.671  2.75E-06  2.94E-04  3.06E-06  3.27E-04  0.00E+00  0.00E+00  5.81E-06  6.21E-04  7.51E-03  0.33024
   1036.    9.653  2.69E-06  2.89E-04  2.91E-06  3.12E-04  0.00E+00  0.00E+00  5.60E-06  6.01E-04  7.53E-03  0.31523
   1038.    9.634  2.82E-06  3.04E-04  2.49E-06  2.68E-04  0.00E+00  0.00E+00  5.31E-06  5.72E-04  7.54E-03  0.27052
   1040.    9.615  2.80E-06  3.03E-04  2.41E-06  2.61E-04  0.00E+00  0.00E+00  5.21E-06  5.63E-04  7.55E-03  0.26347
   1042.    9.597  2.77E-06  3.01E-04  3.60E-06  3.91E-04  0.00E+00  0.00E+00  6.37E-06  6.92E-04  7.56E-03  0.39465
   1044.    9.579  2.77E-06  3.01E-04  4.38E-06  4.77E-04  0.00E+00  0.00E+00  7.14E-06  7.79E-04  7.57E-03  0.48208
   1046.    9.560  2.61E-06  2.86E-04  3.61E-06  3.95E-04  0.00E+00  0.00E+00  6.22E-06  6.81E-04  7.59E-03  0.39931
   1048.    9.542  2.73E-06  3.00E-04  2.59E-06  2.84E-04  0.00E+00  0.00E+00  5.32E-06  5.85E-04  7.60E-03  0.28708
   1050.    9.524  2.92E-06  3.22E-04  2.00E-06  2.20E-04  0.00E+00  0.00E+00  4.92E-06  5.42E-04  7.61E-03  0.22270
   1052.    9.506  2.75E-06  3.05E-04  2.03E-06  2.25E-04  0.00E+00  0.00E+00  4.78E-06  5.30E-04  7.62E-03  0.22728
   1054.    9.488  2.64E-06  2.93E-04  2.06E-06  2.29E-04  0.00E+00  0.00E+00  4.70E-06  5.22E-04  7.63E-03  0.23112
   1056.    9.470  2.74E-06  3.05E-04  1.95E-06  2.17E-04  0.00E+00  0.00E+00  4.68E-06  5.22E-04  7.64E-03  0.21955
   1058.    9.452  2.79E-06  3.13E-04  2.23E-06  2.50E-04  0.00E+00  0.00E+00  5.02E-06  5.62E-04  7.65E-03  0.25251
   1060.    9.434  2.92E-06  3.28E-04  2.49E-06  2.80E-04  0.00E+00  0.00E+00  5.40E-06  6.07E-04  7.66E-03  0.28271
   1062.    9.416  2.89E-06  3.25E-04  2.93E-06  3.31E-04  0.00E+00  0.00E+00  5.82E-06  6.56E-04  7.67E-03  0.33430
   1064.    9.398  3.01E-06  3.41E-04  3.34E-06  3.78E-04  0.00E+00  0.00E+00  6.36E-06  7.20E-04  7.68E-03  0.38271
   1066.    9.381  3.56E-06  4.04E-04  3.15E-06  3.58E-04  0.00E+00  0.00E+00  6.71E-06  7.63E-04  7.69E-03  0.36230
   1068.    9.363  3.13E-06  3.57E-04  4.08E-06  4.66E-04  0.00E+00  0.00E+00  7.21E-06  8.23E-04  7.71E-03  0.47131
   1070.    9.346  2.64E-06  3.02E-04  4.99E-06  5.72E-04  0.00E+00  0.00E+00  7.63E-06  8.74E-04  7.72E-03  0.57877
   1072.    9.328  3.11E-06  3.57E-04  4.54E-06  5.22E-04  0.00E+00  0.00E+00  7.65E-06  8.80E-04  7.74E-03  0.52860
   1074.    9.311  3.78E-06  4.36E-04  3.60E-06  4.16E-04  0.00E+00  0.00E+00  7.39E-06  8.52E-04  7.75E-03  0.42090
   1076.    9.294  3.22E-06  3.73E-04  4.28E-06  4.95E-04  0.00E+00  0.00E+00  7.50E-06  8.69E-04  7.77E-03  0.50203
   1078.    9.276  2.66E-06  3.09E-04  5.06E-06  5.87E-04  0.00E+00  0.00E+00  7.72E-06  8.97E-04  7.78E-03  0.59539
   1080.    9.259  2.72E-06  3.17E-04  4.86E-06  5.67E-04  0.00E+00  0.00E+00  7.58E-06  8.85E-04  7.80E-03  0.57513
   1082.    9.242  2.66E-06  3.12E-04  4.93E-06  5.78E-04  0.00E+00  0.00E+00  7.60E-06  8.89E-04  7.81E-03  0.58579
   1084.    9.225  2.63E-06  3.09E-04  5.07E-06  5.96E-04  0.00E+00  0.00E+00  7.70E-06  9.04E-04  7.83E-03  0.60449
   1086.    9.208  2.66E-06  3.14E-04  4.97E-06  5.87E-04  0.00E+00  0.00E+00  7.64E-06  9.01E-04  7.85E-03  0.59546
   1088.    9.191  2.47E-06  2.92E-04  5.20E-06  6.16E-04  0.00E+00  0.00E+00  7.67E-06  9.08E-04  7.86E-03  0.62518
   1090.    9.174  2.95E-06  3.50E-04  4.57E-06  5.43E-04  0.00E+00  0.00E+00  7.52E-06  8.93E-04  7.88E-03  0.55147
   1092.    9.158  2.98E-06  3.56E-04  4.54E-06  5.41E-04  0.00E+00  0.00E+00  7.52E-06  8.97E-04  7.89E-03  0.55046
   1094.    9.141  2.16E-06  2.58E-04  5.58E-06  6.68E-04  0.00E+00  0.00E+00  7.74E-06  9.26E-04  7.91E-03  0.67951
   1096.    9.124  1.99E-06  2.39E-04  5.77E-06  6.93E-04  0.00E+00  0.00E+00  7.76E-06  9.33E-04  7.92E-03  0.70518
   1098.    9.107  2.43E-06  2.93E-04  5.18E-06  6.25E-04  0.00E+00  0.00E+00  7.62E-06  9.18E-04  7.94E-03  0.63578
   1100.    9.091  3.56E-06  4.30E-04  3.61E-06  4.36E-04  0.00E+00  0.00E+00  7.16E-06  8.66E-04  7.95E-03  0.44401
  iv         1105
1                                             RADIANCE(WATTS/CM2-STER-XXX)
0  FREQ   WAVLEN    PATH THERMAL      SURFACE EMISSION    SURFACE REFLECTED     TOTAL RADIANCE   INTEGRAL    TOTAL
  (CM-1) (MICRN)    (CM-1)   (MICRN)    (CM-1)   (MICRN)    (CM-1)   (MICRN)    (CM-1)   (MICRN)    (CM-1)   TRANS

   1102.    9.074  3.10E-06  3.76E-04  4.21E-06  5.11E-04  0.00E+00  0.00E+00  7.30E-06  8.87E-04  7.97E-03  0.52093
   1104.    9.058  2.34E-06  2.85E-04  5.25E-06  6.40E-04  0.00E+00  0.00E+00  7.59E-06  9.25E-04  7.98E-03  0.65249
   1106.    9.042  3.21E-06  3.92E-04  4.03E-06  4.92E-04  0.00E+00  0.00E+00  7.23E-06  8.85E-04  8.00E-03  0.50203
   1108.    9.025  2.99E-06  3.67E-04  4.25E-06  5.22E-04  0.00E+00  0.00E+00  7.24E-06  8.89E-04  8.01E-03  0.53260
   1110.    9.009  2.69E-06  3.32E-04  4.64E-06  5.72E-04  0.00E+00  0.00E+00  7.34E-06  9.04E-04  8.02E-03  0.58393
   1112.    8.993  3.14E-06  3.89E-04  3.89E-06  4.81E-04  0.00E+00  0.00E+00  7.04E-06  8.70E-04  8.04E-03  0.49190
   1114.    8.977  2.28E-06  2.83E-04  5.05E-06  6.26E-04  0.00E+00  0.00E+00  7.33E-06  9.09E-04  8.05E-03  0.64065
   1116.    8.961  2.06E-06  2.57E-04  5.34E-06  6.66E-04  0.00E+00  0.00E+00  7.41E-06  9.22E-04  8.07E-03  0.68096
   1118.    8.945  2.38E-06  2.98E-04  4.89E-06  6.12E-04  0.00E+00  0.00E+00  7.28E-06  9.09E-04  8.08E-03  0.62621
   1120.    8.929  3.11E-06  3.91E-04  3.75E-06  4.71E-04  0.00E+00  0.00E+00  6.87E-06  8.61E-04  8.10E-03  0.48194
   1122.    8.913  3.14E-06  3.95E-04  3.68E-06  4.64E-04  0.00E+00  0.00E+00  6.82E-06  8.59E-04  8.11E-03  0.47572
   1124.    8.897  2.11E-06  2.66E-04  5.10E-06  6.44E-04  0.00E+00  0.00E+00  7.21E-06  9.11E-04  8.12E-03  0.66106
   1126.    8.881  1.84E-06  2.33E-04  5.39E-06  6.84E-04  0.00E+00  0.00E+00  7.23E-06  9.17E-04  8.14E-03  0.70210
   1128.    8.865  1.81E-06  2.30E-04  5.42E-06  6.90E-04  0.00E+00  0.00E+00  7.23E-06  9.20E-04  8.15E-03  0.70892
   1130.    8.850  1.89E-06  2.42E-04  5.29E-06  6.76E-04  0.00E+00  0.00E+00  7.18E-06  9.17E-04  8.17E-03  0.69484
   1132.    8.834  2.12E-06  2.71E-04  5.01E-06  6.42E-04  0.00E+00  0.00E+00  7.13E-06  9.13E-04  8.18E-03  0.66045
   1134.    8.818  3.38E-06  4.34E-04  3.22E-06  4.14E-04  0.00E+00  0.00E+00  6.60E-06  8.48E-04  8.20E-03  0.42608
   1136.    8.803  4.50E-06  5.81E-04  1.26E-06  1.62E-04  0.00E+00  0.00E+00  5.76E-06  7.43E-04  8.21E-03  0.16712
   1138.    8.787  3.55E-06  4.60E-04  2.83E-06  3.67E-04  0.00E+00  0.00E+00  6.38E-06  8.27E-04  8.22E-03  0.37858
   1140.    8.772  2.28E-06  2.97E-04  4.74E-06  6.16E-04  0.00E+00  0.00E+00  7.02E-06  9.13E-04  8.23E-03  0.63590
   1142.    8.757  2.09E-06  2.73E-04  4.93E-06  6.43E-04  0.00E+00  0.00E+00  7.03E-06  9.16E-04  8.25E-03  0.66442
   1144.    8.741  1.86E-06  2.44E-04  5.17E-06  6.77E-04  0.00E+00  0.00E+00  7.04E-06  9.21E-04  8.26E-03  0.70023
   1146.    8.726  1.84E-06  2.42E-04  5.17E-06  6.79E-04  0.00E+00  0.00E+00  7.01E-06  9.21E-04  8.28E-03  0.70302
   1148.    8.711  2.69E-06  3.55E-04  3.93E-06  5.18E-04  0.00E+00  0.00E+00  6.62E-06  8.73E-04  8.29E-03  0.53570
   1150.    8.696  3.48E-06  4.60E-04  2.86E-06  3.78E-04  0.00E+00  0.00E+00  6.33E-06  8.38E-04  8.30E-03  0.39159
   1152.    8.681  3.51E-06  4.65E-04  2.77E-06  3.67E-04  0.00E+00  0.00E+00  6.27E-06  8.33E-04  8.31E-03  0.38116
   1154.    8.666  2.56E-06  3.40E-04  4.09E-06  5.44E-04  0.00E+00  0.00E+00  6.64E-06  8.85E-04  8.33E-03  0.56587
   1156.    8.651  1.78E-06  2.38E-04  5.08E-06  6.79E-04  0.00E+00  0.00E+00  6.87E-06  9.18E-04  8.34E-03  0.70640
   1158.    8.636  1.69E-06  2.27E-04  5.16E-06  6.92E-04  0.00E+00  0.00E+00  6.86E-06  9.19E-04  8.35E-03  0.72056
   1160.    8.621  1.74E-06  2.34E-04  5.07E-06  6.82E-04  0.00E+00  0.00E+00  6.81E-06  9.16E-04  8.37E-03  0.71043
   1162.    8.606  1.93E-06  2.61E-04  4.82E-06  6.50E-04  0.00E+00  0.00E+00  6.75E-06  9.11E-04  8.38E-03  0.67784
   1164.    8.591  3.02E-06  4.09E-04  3.17E-06  4.30E-04  0.00E+00  0.00E+00  6.19E-06  8.39E-04  8.39E-03  0.44831
   1166.    8.576  3.46E-06  4.70E-04  2.52E-06  3.42E-04  0.00E+00  0.00E+00  5.97E-06  8.12E-04  8.41E-03  0.35786
   1168.    8.562  2.32E-06  3.16E-04  4.22E-06  5.76E-04  0.00E+00  0.00E+00  6.54E-06  8.92E-04  8.42E-03  0.60267
   1170.    8.547  2.21E-06  3.03E-04  4.37E-06  5.98E-04  0.00E+00  0.00E+00  6.58E-06  9.01E-04  8.43E-03  0.62614
   1172.    8.532  3.04E-06  4.17E-04  3.20E-06  4.40E-04  0.00E+00  0.00E+00  6.24E-06  8.57E-04  8.45E-03  0.46033
   1174.    8.518  4.09E-06  5.64E-04  1.15E-06  1.59E-04  0.00E+00  0.00E+00  5.24E-06  7.23E-04  8.46E-03  0.16618
   1176.    8.503  3.65E-06  5.05E-04  1.92E-06  2.65E-04  0.00E+00  0.00E+00  5.57E-06  7.70E-04  8.47E-03  0.27913
   1178.    8.489  2.63E-06  3.66E-04  3.73E-06  5.18E-04  0.00E+00  0.00E+00  6.36E-06  8.83E-04  8.48E-03  0.54441
   1180.    8.475  2.35E-06  3.28E-04  4.02E-06  5.59E-04  0.00E+00  0.00E+00  6.37E-06  8.87E-04  8.49E-03  0.58884
   1182.    8.460  2.21E-06  3.09E-04  4.17E-06  5.82E-04  0.00E+00  0.00E+00  6.38E-06  8.92E-04  8.50E-03  0.61383
   1184.    8.446  2.61E-06  3.65E-04  3.68E-06  5.16E-04  0.00E+00  0.00E+00  6.29E-06  8.82E-04  8.52E-03  0.54459
   1186.    8.432  3.65E-06  5.14E-04  1.85E-06  2.60E-04  0.00E+00  0.00E+00  5.50E-06  7.74E-04  8.53E-03  0.27405
   1188.    8.418  3.87E-06  5.46E-04  1.43E-06  2.02E-04  0.00E+00  0.00E+00  5.30E-06  7.49E-04  8.54E-03  0.21432
   1190.    8.403  2.96E-06  4.19E-04  3.06E-06  4.34E-04  0.00E+00  0.00E+00  6.02E-06  8.53E-04  8.55E-03  0.45951
   1192.    8.389  2.40E-06  3.40E-04  3.77E-06  5.36E-04  0.00E+00  0.00E+00  6.17E-06  8.76E-04  8.56E-03  0.56811
   1194.    8.375  2.32E-06  3.31E-04  3.85E-06  5.49E-04  0.00E+00  0.00E+00  6.18E-06  8.80E-04  8.58E-03  0.58302
   1196.    8.361  2.77E-06  3.97E-04  3.12E-06  4.46E-04  0.00E+00  0.00E+00  5.89E-06  8.43E-04  8.59E-03  0.47336
   1198.    8.347  3.59E-06  5.15E-04  1.67E-06  2.40E-04  0.00E+00  0.00E+00  5.26E-06  7.55E-04  8.60E-03  0.25479
   1200.    8.333  3.04E-06  4.37E-04  2.66E-06  3.83E-04  0.00E+00  0.00E+00  5.70E-06  8.20E-04  8.61E-03  0.40835
  iv         1205
1                                             RADIANCE(WATTS/CM2-STER-XXX)
0  FREQ   WAVLEN    PATH THERMAL      SURFACE EMISSION    SURFACE REFLECTED     TOTAL RADIANCE   INTEGRAL    TOTAL
  (CM-1) (MICRN)    (CM-1)   (MICRN)    (CM-1)   (MICRN)    (CM-1)   (MICRN)    (CM-1)   (MICRN)    (CM-1)   TRANS

   1202.    8.319  2.03E-06  2.94E-04  4.09E-06  5.91E-04  0.00E+00  0.00E+00  6.12E-06  8.85E-04  8.62E-03  0.63065
   1204.    8.306  2.01E-06  2.91E-04  4.08E-06  5.91E-04  0.00E+00  0.00E+00  6.08E-06  8.82E-04  8.63E-03  0.63086
   1206.    8.292  2.52E-06  3.66E-04  3.39E-06  4.93E-04  0.00E+00  0.00E+00  5.91E-06  8.59E-04  8.65E-03  0.52670
   1208.    8.278  2.69E-06  3.92E-04  3.18E-06  4.63E-04  0.00E+00  0.00E+00  5.86E-06  8.56E-04  8.66E-03  0.49615
   1210.    8.264  3.32E-06  4.86E-04  1.84E-06  2.69E-04  0.00E+00  0.00E+00  5.15E-06  7.55E-04  8.67E-03  0.28782
   1212.    8.251  3.80E-06  5.58E-04  5.71E-07  8.39E-05  0.00E+00  0.00E+00  4.37E-06  6.42E-04  8.68E-03  0.09000
   1214.    8.237  3.65E-06  5.37E-04  1.44E-06  2.13E-04  0.00E+00  0.00E+00  5.09E-06  7.50E-04  8.69E-03  0.22883
   1216.    8.224  3.15E-06  4.66E-04  2.37E-06  3.51E-04  0.00E+00  0.00E+00  5.52E-06  8.17E-04  8.70E-03  0.37773
   1218.    8.210  3.53E-06  5.24E-04  1.49E-06  2.20E-04  0.00E+00  0.00E+00  5.02E-06  7.44E-04  8.71E-03  0.23712
   1220.    8.197  3.64E-06  5.42E-04  1.16E-06  1.73E-04  0.00E+00  0.00E+00  4.81E-06  7.16E-04  8.72E-03  0.18735
   1222.    8.183  3.48E-06  5.19E-04  1.64E-06  2.45E-04  0.00E+00  0.00E+00  5.12E-06  7.64E-04  8.73E-03  0.26520
   1224.    8.170  3.68E-06  5.51E-04  8.48E-07  1.27E-04  0.00E+00  0.00E+00  4.53E-06  6.78E-04  8.74E-03  0.13720
   1226.    8.157  3.57E-06  5.36E-04  7.94E-07  1.19E-04  0.00E+00  0.00E+00  4.36E-06  6.55E-04  8.75E-03  0.12972
   1228.    8.143  3.00E-06  4.52E-04  2.12E-06  3.19E-04  0.00E+00  0.00E+00  5.11E-06  7.71E-04  8.76E-03  0.34655
   1230.    8.130  2.33E-06  3.52E-04  2.98E-06  4.52E-04  0.00E+00  0.00E+00  5.31E-06  8.03E-04  8.77E-03  0.49124
   1232.    8.117  2.02E-06  3.07E-04  3.55E-06  5.39E-04  0.00E+00  0.00E+00  5.57E-06  8.45E-04  8.78E-03  0.58643
   1234.    8.104  2.10E-06  3.20E-04  3.37E-06  5.14E-04  0.00E+00  0.00E+00  5.48E-06  8.34E-04  8.79E-03  0.56008
   1236.    8.091  2.57E-06  3.92E-04  2.35E-06  3.59E-04  0.00E+00  0.00E+00  4.92E-06  7.52E-04  8.80E-03  0.39220
   1238.    8.078  3.11E-06  4.77E-04  1.53E-06  2.34E-04  0.00E+00  0.00E+00  4.64E-06  7.11E-04  8.81E-03  0.25577
   1240.    8.065  3.34E-06  5.13E-04  1.34E-06  2.06E-04  0.00E+00  0.00E+00  4.67E-06  7.19E-04  8.82E-03  0.22546
   1242.    8.052  3.29E-06  5.08E-04  1.00E-06  1.54E-04  0.00E+00  0.00E+00  4.29E-06  6.62E-04  8.83E-03  0.16919
   1244.    8.039  3.27E-06  5.07E-04  3.34E-07  5.17E-05  0.00E+00  0.00E+00  3.61E-06  5.59E-04  8.83E-03  0.05678
   1246.    8.026  3.08E-06  4.78E-04  9.23E-07  1.43E-04  0.00E+00  0.00E+00  4.00E-06  6.21E-04  8.84E-03  0.15793
   1248.    8.013  2.91E-06  4.54E-04  1.39E-06  2.17E-04  0.00E+00  0.00E+00  4.31E-06  6.71E-04  8.85E-03  0.23924
   1250.    8.000  2.96E-06  4.63E-04  1.50E-06  2.35E-04  0.00E+00  0.00E+00  4.46E-06  6.98E-04  8.86E-03  0.25943
   1252.    7.987  3.19E-06  5.00E-04  1.09E-06  1.71E-04  0.00E+00  0.00E+00  4.28E-06  6.71E-04  8.87E-03  0.18867
   1254.    7.974  3.10E-06  4.87E-04  9.21E-07  1.45E-04  0.00E+00  0.00E+00  4.02E-06  6.32E-04  8.87E-03  0.16053
   1256.    7.962  3.33E-06  5.25E-04  9.72E-07  1.53E-04  0.00E+00  0.00E+00  4.30E-06  6.78E-04  8.88E-03  0.17004
   1258.    7.949  3.45E-06  5.47E-04  3.95E-07  6.26E-05  0.00E+00  0.00E+00  3.85E-06  6.09E-04  8.89E-03  0.06933
   1260.    7.937  2.77E-06  4.40E-04  5.59E-08  8.88E-06  0.00E+00  0.00E+00  2.82E-06  4.48E-04  8.90E-03  0.00986
   1262.    7.924  2.94E-06  4.69E-04  1.71E-07  2.73E-05  0.00E+00  0.00E+00  3.12E-06  4.96E-04  8.90E-03  0.03046
   1264.    7.911  3.21E-06  5.13E-04  1.83E-07  2.92E-05  0.00E+00  0.00E+00  3.39E-06  5.42E-04  8.91E-03  0.03255
   1266.    7.899  2.92E-06  4.68E-04  2.60E-08  4.17E-06  0.00E+00  0.00E+00  2.95E-06  4.73E-04  8.92E-03  0.00465
   1268.    7.886  2.51E-06  4.03E-04  7.42E-10  1.19E-07  0.00E+00  0.00E+00  2.51E-06  4.03E-04  8.92E-03  0.00013
   1270.    7.874  2.32E-06  3.75E-04  2.87E-10  4.64E-08  0.00E+00  0.00E+00  2.32E-06  3.75E-04  8.93E-03  0.00005
   1272.    7.862  2.57E-06  4.16E-04  2.99E-08  4.83E-06  0.00E+00  0.00E+00  2.60E-06  4.21E-04  8.93E-03  0.00546
   1274.    7.849  3.13E-06  5.08E-04  3.50E-07  5.69E-05  0.00E+00  0.00E+00  3.48E-06  5.65E-04  8.94E-03  0.06424
   1276.    7.837  2.93E-06  4.77E-04  8.54E-07  1.39E-04  0.00E+00  0.00E+00  3.78E-06  6.16E-04  8.95E-03  0.15697
   1278.    7.825  3.05E-06  4.98E-04  1.00E-06  1.63E-04  0.00E+00  0.00E+00  4.05E-06  6.61E-04  8.95E-03  0.18453
   1280.    7.813  3.18E-06  5.21E-04  4.46E-07  7.31E-05  0.00E+00  0.00E+00  3.63E-06  5.94E-04  8.96E-03  0.08254
   1282.    7.800  2.84E-06  4.67E-04  1.83E-07  3.01E-05  0.00E+00  0.00E+00  3.02E-06  4.97E-04  8.97E-03  0.03416
   1284.    7.788  3.00E-06  4.94E-04  1.41E-07  2.33E-05  0.00E+00  0.00E+00  3.14E-06  5.17E-04  8.97E-03  0.02638
   1286.    7.776  2.99E-06  4.94E-04  4.97E-08  8.22E-06  0.00E+00  0.00E+00  3.04E-06  5.02E-04  8.98E-03  0.00933
   1288.    7.764  2.35E-06  3.89E-04  5.48E-09  9.10E-07  0.00E+00  0.00E+00  2.35E-06  3.90E-04  8.98E-03  0.00104
   1290.    7.752  2.87E-06  4.77E-04  2.96E-08  4.93E-06  0.00E+00  0.00E+00  2.90E-06  4.82E-04  8.99E-03  0.00566
   1292.    7.740  3.13E-06  5.23E-04  1.29E-07  2.16E-05  0.00E+00  0.00E+00  3.26E-06  5.44E-04  9.00E-03  0.02475
   1294.    7.728  2.80E-06  4.68E-04  1.80E-07  3.01E-05  0.00E+00  0.00E+00  2.98E-06  4.98E-04  9.00E-03  0.03453
   1296.    7.716  2.46E-06  4.14E-04  8.15E-08  1.37E-05  0.00E+00  0.00E+00  2.54E-06  4.27E-04  9.01E-03  0.01569
   1298.    7.704  2.48E-06  4.17E-04  2.34E-07  3.94E-05  0.00E+00  0.00E+00  2.71E-06  4.57E-04  9.01E-03  0.04545
   1300.    7.692  2.45E-06  4.15E-04  3.57E-07  6.03E-05  0.00E+00  0.00E+00  2.81E-06  4.75E-04  9.02E-03  0.06954
  iv         1305
1                                             RADIANCE(WATTS/CM2-STER-XXX)
0  FREQ   WAVLEN    PATH THERMAL      SURFACE EMISSION    SURFACE REFLECTED     TOTAL RADIANCE   INTEGRAL    TOTAL
  (CM-1) (MICRN)    (CM-1)   (MICRN)    (CM-1)   (MICRN)    (CM-1)   (MICRN)    (CM-1)   (MICRN)    (CM-1)   TRANS

   1302.    7.680  1.97E-06  3.34E-04  1.86E-07  3.15E-05  0.00E+00  0.00E+00  2.16E-06  3.66E-04  9.02E-03  0.03630
   1304.    7.669  1.36E-06  2.32E-04  5.04E-08  8.57E-06  0.00E+00  0.00E+00  1.41E-06  2.41E-04  9.03E-03  0.00989
   1306.    7.657  1.50E-06  2.55E-04  5.71E-09  9.74E-07  0.00E+00  0.00E+00  1.50E-06  2.56E-04  9.03E-03  0.00113
   1308.    7.645  2.40E-06  4.11E-04  2.47E-09  4.23E-07  0.00E+00  0.00E+00  2.41E-06  4.12E-04  9.03E-03  0.00049
   1310.    7.634  2.75E-06  4.73E-04  3.69E-09  6.32E-07  0.00E+00  0.00E+00  2.76E-06  4.73E-04  9.04E-03  0.00074
   1312.    7.622  2.21E-06  3.80E-04  1.35E-09  2.33E-07  0.00E+00  0.00E+00  2.21E-06  3.81E-04  9.04E-03  0.00027
   1314.    7.610  1.93E-06  3.33E-04  1.03E-15  1.77E-13  0.00E+00  0.00E+00  1.93E-06  3.33E-04  9.05E-03  0.00000
   1316.    7.599  1.94E-06  3.36E-04  2.95E-15  5.11E-13  0.00E+00  0.00E+00  1.94E-06  3.36E-04  9.05E-03  0.00000
   1318.    7.587  1.72E-06  2.98E-04  7.24E-14  1.26E-11  0.00E+00  0.00E+00  1.72E-06  2.98E-04  9.05E-03  0.00000
   1320.    7.576  1.79E-06  3.12E-04  2.52E-11  4.40E-09  0.00E+00  0.00E+00  1.79E-06  3.12E-04  9.06E-03  0.00001
   1322.    7.564  2.17E-06  3.79E-04  2.04E-10  3.57E-08  0.00E+00  0.00E+00  2.17E-06  3.79E-04  9.06E-03  0.00004
   1324.    7.553  2.71E-06  4.75E-04  8.51E-09  1.49E-06  0.00E+00  0.00E+00  2.72E-06  4.77E-04  9.07E-03  0.00177
   1326.    7.541  2.61E-06  4.58E-04  1.19E-08  2.09E-06  0.00E+00  0.00E+00  2.62E-06  4.61E-04  9.07E-03  0.00246
   1328.    7.530  2.37E-06  4.18E-04  3.12E-09  5.50E-07  0.00E+00  0.00E+00  2.37E-06  4.19E-04  9.08E-03  0.00065
   1330.    7.519  2.58E-06  4.56E-04  7.27E-09  1.29E-06  0.00E+00  0.00E+00  2.59E-06  4.58E-04  9.08E-03  0.00153
   1332.    7.508  2.24E-06  3.97E-04  7.45E-09  1.32E-06  0.00E+00  0.00E+00  2.25E-06  3.99E-04  9.09E-03  0.00157
   1334.    7.496  2.23E-06  3.97E-04  4.14E-10  7.38E-08  0.00E+00  0.00E+00  2.23E-06  3.97E-04  9.09E-03  0.00009
   1336.    7.485  1.91E-06  3.41E-04  5.88E-11  1.05E-08  0.00E+00  0.00E+00  1.91E-06  3.41E-04  9.10E-03  0.00001
   1338.    7.474  1.23E-06  2.21E-04  1.20E-20  2.15E-18  0.00E+00  0.00E+00  1.23E-06  2.21E-04  9.10E-03  0.00000
   1340.    7.463  1.22E-06  2.18E-04  2.32E-18  4.16E-16  0.00E+00  0.00E+00  1.22E-06  2.18E-04  9.10E-03  0.00000
   1342.    7.452  1.53E-06  2.75E-04  7.73E-12  1.39E-09  0.00E+00  0.00E+00  1.53E-06  2.75E-04  9.10E-03  0.00000
   1344.    7.440  2.15E-06  3.89E-04  2.69E-10  4.86E-08  0.00E+00  0.00E+00  2.15E-06  3.89E-04  9.11E-03  0.00006
   1346.    7.429  2.18E-06  3.95E-04  3.99E-10  7.23E-08  0.00E+00  0.00E+00  2.18E-06  3.95E-04  9.11E-03  0.00009
   1348.    7.418  1.76E-06  3.19E-04  8.76E-11  1.59E-08  0.00E+00  0.00E+00  1.76E-06  3.19E-04  9.12E-03  0.00002
   1350.    7.407  1.83E-06  3.33E-04  4.04E-11  7.36E-09  0.00E+00  0.00E+00  1.83E-06  3.33E-04  9.12E-03  0.00001
   1352.    7.396  1.98E-06  3.62E-04  6.59E-11  1.20E-08  0.00E+00  0.00E+00  1.98E-06  3.62E-04  9.12E-03  0.00001
   1354.    7.386  1.78E-06  3.26E-04  1.82E-11  3.33E-09  0.00E+00  0.00E+00  1.78E-06  3.26E-04  9.13E-03  0.00000
   1356.    7.375  1.73E-06  3.19E-04  9.32E-13  1.71E-10  0.00E+00  0.00E+00  1.73E-06  3.19E-04  9.13E-03  0.00000
   1358.    7.364  1.87E-06  3.45E-04  7.55E-13  1.39E-10  0.00E+00  0.00E+00  1.87E-06  3.45E-04  9.13E-03  0.00000
   1360.    7.353  1.61E-06  2.98E-04  1.13E-14  2.09E-12  0.00E+00  0.00E+00  1.61E-06  2.98E-04  9.14E-03  0.00000
   1362.    7.342  1.19E-06  2.22E-04  2.71E-22  5.03E-20  0.00E+00  0.00E+00  1.19E-06  2.22E-04  9.14E-03  0.00000
   1364.    7.331  1.37E-06  2.55E-04  5.33E-17  9.91E-15  0.00E+00  0.00E+00  1.37E-06  2.55E-04  9.14E-03  0.00000
   1366.    7.321  1.84E-06  3.44E-04  3.10E-16  5.78E-14  0.00E+00  0.00E+00  1.84E-06  3.44E-04  9.15E-03  0.00000
   1368.    7.310  1.61E-06  3.02E-04  2.72E-16  5.10E-14  0.00E+00  0.00E+00  1.61E-06  3.02E-04  9.15E-03  0.00000
   1370.    7.299  1.54E-06  2.90E-04  6.93E-17  1.30E-14  0.00E+00  0.00E+00  1.54E-06  2.90E-04  9.15E-03  0.00000
   1372.    7.289  1.44E-06  2.72E-04  8.24E-21  1.55E-18  0.00E+00  0.00E+00  1.44E-06  2.72E-04  9.16E-03  0.00000
   1374.    7.278  1.05E-06  1.98E-04  2.64E-29  4.98E-27  0.00E+00  0.00E+00  1.05E-06  1.98E-04  9.16E-03  0.00000
   1376.    7.267  1.24E-06  2.35E-04  2.96E-23  5.60E-21  0.00E+00  0.00E+00  1.24E-06  2.35E-04  9.16E-03  0.00000
   1378.    7.257  1.50E-06  2.85E-04  1.98E-19  3.76E-17  0.00E+00  0.00E+00  1.50E-06  2.85E-04  9.16E-03  0.00000
   1380.    7.246  1.65E-06  3.13E-04  6.39E-16  1.22E-13  0.00E+00  0.00E+00  1.65E-06  3.13E-04  9.17E-03  0.00000
   1382.    7.236  1.84E-06  3.51E-04  1.00E-15  1.91E-13  0.00E+00  0.00E+00  1.84E-06  3.51E-04  9.17E-03  0.00000
   1384.    7.225  1.75E-06  3.35E-04  2.09E-16  4.01E-14  0.00E+00  0.00E+00  1.75E-06  3.35E-04  9.17E-03  0.00000
   1386.    7.215  1.28E-06  2.46E-04  8.22E-19  1.58E-16  0.00E+00  0.00E+00  1.28E-06  2.46E-04  9.18E-03  0.00000
   1388.    7.205  1.08E-06  2.08E-04  9.75E-24  1.88E-21  0.00E+00  0.00E+00  1.08E-06  2.08E-04  9.18E-03  0.00000
   1390.    7.194  1.38E-06  2.66E-04  3.25E-24  6.28E-22  0.00E+00  0.00E+00  1.38E-06  2.66E-04  9.18E-03  0.00000
   1392.    7.184  1.34E-06  2.59E-04  1.02E-28  1.99E-26  0.00E+00  0.00E+00  1.34E-06  2.59E-04  9.18E-03  0.00000
   1394.    7.174  9.60E-07  1.87E-04  4.19E-29  8.13E-27  0.00E+00  0.00E+00  9.60E-07  1.87E-04  9.19E-03  0.00000
   1396.    7.163  9.44E-07  1.84E-04  1.40E-29  2.72E-27  0.00E+00  0.00E+00  9.44E-07  1.84E-04  9.19E-03  0.00000
   1398.    7.153  9.54E-07  1.86E-04  1.11E-24  2.17E-22  0.00E+00  0.00E+00  9.54E-07  1.86E-04  9.19E-03  0.00000
   1400.    7.143  1.05E-06  2.05E-04  1.11E-24  2.18E-22  0.00E+00  0.00E+00  1.05E-06  2.05E-04  9.19E-03  0.00000
  iv         1405
1                                             RADIANCE(WATTS/CM2-STER-XXX)
0  FREQ   WAVLEN    PATH THERMAL      SURFACE EMISSION    SURFACE REFLECTED     TOTAL RADIANCE   INTEGRAL    TOTAL
  (CM-1) (MICRN)    (CM-1)   (MICRN)    (CM-1)   (MICRN)    (CM-1)   (MICRN)    (CM-1)   (MICRN)    (CM-1)   TRANS

   1402.    7.133  1.36E-06  2.67E-04  6.86E-29  1.35E-26  0.00E+00  0.00E+00  1.36E-06  2.67E-04  9.19E-03  0.00000
   1404.    7.123  1.16E-06  2.28E-04  4.58E-19  9.03E-17  0.00E+00  0.00E+00  1.16E-06  2.28E-04  9.20E-03  0.00000
   1406.    7.112  1.30E-06  2.56E-04  4.63E-19  9.16E-17  0.00E+00  0.00E+00  1.30E-06  2.56E-04  9.20E-03  0.00000
   1408.    7.102  1.58E-06  3.12E-04  1.56E-20  3.10E-18  0.00E+00  0.00E+00  1.58E-06  3.12E-04  9.20E-03  0.00000
   1410.    7.092  1.40E-06  2.79E-04  5.35E-21  1.06E-18  0.00E+00  0.00E+00  1.40E-06  2.79E-04  9.20E-03  0.00000
   1412.    7.082  1.33E-06  2.66E-04  8.75E-23  1.74E-20  0.00E+00  0.00E+00  1.33E-06  2.66E-04  9.21E-03  0.00000
   1414.    7.072  1.38E-06  2.76E-04  3.20E-23  6.40E-21  0.00E+00  0.00E+00  1.38E-06  2.76E-04  9.21E-03  0.00000
   1416.    7.062  1.08E-06  2.16E-04  4.87E-26  9.76E-24  0.00E+00  0.00E+00  1.08E-06  2.16E-04  9.21E-03  0.00000
   1418.    7.052  7.60E-07  1.53E-04  1.37E-43  2.76E-41  0.00E+00  0.00E+00  7.60E-07  1.53E-04  9.21E-03  0.00000
   1420.    7.042  7.37E-07  1.49E-04  0.00E+00  0.00E+00  0.00E+00  0.00E+00  7.37E-07  1.49E-04  9.22E-03  0.00000
   1422.    7.032  9.48E-07  1.92E-04  9.64E-33  1.95E-30  0.00E+00  0.00E+00  9.48E-07  1.92E-04  9.22E-03  0.00000
   1424.    7.022  9.35E-07  1.90E-04  2.89E-32  5.86E-30  0.00E+00  0.00E+00  9.35E-07  1.90E-04  9.22E-03  0.00000
   1426.    7.013  1.15E-06  2.35E-04  1.05E-32  2.13E-30  0.00E+00  0.00E+00  1.15E-06  2.35E-04  9.22E-03  0.00000
   1428.    7.003  1.06E-06  2.17E-04  1.75E-27  3.57E-25  0.00E+00  0.00E+00  1.06E-06  2.17E-04  9.22E-03  0.00000
   1430.    6.993  8.80E-07  1.80E-04  5.25E-27  1.07E-24  0.00E+00  0.00E+00  8.80E-07  1.80E-04  9.23E-03  0.00000
   1432.    6.983  9.88E-07  2.03E-04  1.75E-27  3.59E-25  0.00E+00  0.00E+00  9.88E-07  2.03E-04  9.23E-03  0.00000
   1434.    6.974  9.25E-07  1.90E-04  1.81E-42  3.73E-40  0.00E+00  0.00E+00  9.25E-07  1.90E-04  9.23E-03  0.00000
   1436.    6.964  6.83E-07  1.41E-04  0.00E+00  0.00E+00  0.00E+00  0.00E+00  6.83E-07  1.41E-04  9.23E-03  0.00000
   1438.    6.954  8.14E-07  1.68E-04  1.26E-39  2.61E-37  0.00E+00  0.00E+00  8.14E-07  1.68E-04  9.23E-03  0.00000
   1440.    6.944  1.16E-06  2.41E-04  4.11E-30  8.52E-28  0.00E+00  0.00E+00  1.16E-06  2.41E-04  9.23E-03  0.00000
   1442.    6.935  1.28E-06  2.67E-04  1.93E-28  4.02E-26  0.00E+00  0.00E+00  1.28E-06  2.67E-04  9.24E-03  0.00000
   1444.    6.925  1.24E-06  2.58E-04  2.34E-28  4.87E-26  0.00E+00  0.00E+00  1.24E-06  2.58E-04  9.24E-03  0.00000
   1446.    6.916  9.57E-07  2.00E-04  2.74E-29  5.72E-27  0.00E+00  0.00E+00  9.57E-07  2.00E-04  9.24E-03  0.00000
   1448.    6.906  8.12E-07  1.70E-04  9.51E-30  1.99E-27  0.00E+00  0.00E+00  8.12E-07  1.70E-04  9.24E-03  0.00000
   1450.    6.897  9.65E-07  2.03E-04  3.17E-30  6.67E-28  0.00E+00  0.00E+00  9.65E-07  2.03E-04  9.24E-03  0.00000
   1452.    6.887  9.03E-07  1.90E-04  0.00E+00  0.00E+00  0.00E+00  0.00E+00  9.03E-07  1.90E-04  9.25E-03  0.00000
   1454.    6.878  7.58E-07  1.60E-04  0.00E+00  0.00E+00  0.00E+00  0.00E+00  7.58E-07  1.60E-04  9.25E-03  0.00000
   1456.    6.868  5.12E-07  1.09E-04  0.00E+00  0.00E+00  0.00E+00  0.00E+00  5.12E-07  1.09E-04  9.25E-03  0.00000
   1458.    6.859  4.62E-07  9.82E-05  0.00E+00  0.00E+00  0.00E+00  0.00E+00  4.62E-07  9.82E-05  9.25E-03  0.00000
   1460.    6.849  7.04E-07  1.50E-04  0.00E+00  0.00E+00  0.00E+00  0.00E+00  7.04E-07  1.50E-04  9.25E-03  0.00000
   1462.    6.840  8.49E-07  1.82E-04  0.00E+00  0.00E+00  0.00E+00  0.00E+00  8.49E-07  1.82E-04  9.25E-03  0.00000
   1464.    6.831  6.56E-07  1.41E-04  1.31E-38  2.81E-36  0.00E+00  0.00E+00  6.56E-07  1.41E-04  9.25E-03  0.00000
   1466.    6.821  6.92E-07  1.49E-04  1.31E-38  2.82E-36  0.00E+00  0.00E+00  6.92E-07  1.49E-04  9.26E-03  0.00000
   1468.    6.812  8.75E-07  1.89E-04  0.00E+00  0.00E+00  0.00E+00  0.00E+00  8.75E-07  1.89E-04  9.26E-03  0.00000
   1470.    6.803  7.70E-07  1.66E-04  0.00E+00  0.00E+00  0.00E+00  0.00E+00  7.70E-07  1.66E-04  9.26E-03  0.00000
   1472.    6.793  5.17E-07  1.12E-04  0.00E+00  0.00E+00  0.00E+00  0.00E+00  5.17E-07  1.12E-04  9.26E-03  0.00000
   1474.    6.784  4.94E-07  1.07E-04  0.00E+00  0.00E+00  0.00E+00  0.00E+00  4.94E-07  1.07E-04  9.26E-03  0.00000
   1476.    6.775  5.98E-07  1.30E-04  0.00E+00  0.00E+00  0.00E+00  0.00E+00  5.98E-07  1.30E-04  9.26E-03  0.00000
   1478.    6.766  8.23E-07  1.80E-04  0.00E+00  0.00E+00  0.00E+00  0.00E+00  8.23E-07  1.80E-04  9.26E-03  0.00000
   1480.    6.757  8.57E-07  1.88E-04  0.00E+00  0.00E+00  0.00E+00  0.00E+00  8.57E-07  1.88E-04  9.27E-03  0.00000
   1482.    6.748  8.18E-07  1.80E-04  0.00E+00  0.00E+00  0.00E+00  0.00E+00  8.18E-07  1.80E-04  9.27E-03  0.00000
   1484.    6.739  8.69E-07  1.91E-04  0.00E+00  0.00E+00  0.00E+00  0.00E+00  8.69E-07  1.91E-04  9.27E-03  0.00000
   1486.    6.729  6.69E-07  1.48E-04  0.00E+00  0.00E+00  0.00E+00  0.00E+00  6.69E-07  1.48E-04  9.27E-03  0.00000
   1488.    6.720  5.13E-07  1.13E-04  0.00E+00  0.00E+00  0.00E+00  0.00E+00  5.13E-07  1.13E-04  9.27E-03  0.00000
   1490.    6.711  4.89E-07  1.09E-04  0.00E+00  0.00E+00  0.00E+00  0.00E+00  4.89E-07  1.09E-04  9.27E-03  0.00000
   1492.    6.702  6.39E-07  1.42E-04  0.00E+00  0.00E+00  0.00E+00  0.00E+00  6.39E-07  1.42E-04  9.27E-03  0.00000
   1494.    6.693  6.85E-07  1.53E-04  0.00E+00  0.00E+00  0.00E+00  0.00E+00  6.85E-07  1.53E-04  9.28E-03  0.00000
   1496.    6.684  4.97E-07  1.11E-04  0.00E+00  0.00E+00  0.00E+00  0.00E+00  4.97E-07  1.11E-04  9.28E-03  0.00000
   1498.    6.676  4.48E-07  1.01E-04  0.00E+00  0.00E+00  0.00E+00  0.00E+00  4.48E-07  1.01E-04  9.28E-03  0.00000
   1500.    6.667  5.32E-07  1.20E-04  0.00E+00  0.00E+00  0.00E+00  0.00E+00  5.32E-07  1.20E-04  9.28E-03  0.00000
  iv         1505
1                                             RADIANCE(WATTS/CM2-STER-XXX)
0  FREQ   WAVLEN    PATH THERMAL      SURFACE EMISSION    SURFACE REFLECTED     TOTAL RADIANCE   INTEGRAL    TOTAL
  (CM-1) (MICRN)    (CM-1)   (MICRN)    (CM-1)   (MICRN)    (CM-1)   (MICRN)    (CM-1)   (MICRN)    (CM-1)   TRANS

   1502.    6.658  6.09E-07  1.37E-04  0.00E+00  0.00E+00  0.00E+00  0.00E+00  6.09E-07  1.37E-04  9.28E-03  0.00000
   1504.    6.649  5.22E-07  1.18E-04  0.00E+00  0.00E+00  0.00E+00  0.00E+00  5.22E-07  1.18E-04  9.28E-03  0.00000
   1506.    6.640  3.38E-07  7.66E-05  0.00E+00  0.00E+00  0.00E+00  0.00E+00  3.38E-07  7.66E-05  9.28E-03  0.00000
   1508.    6.631  3.38E-07  7.70E-05  0.00E+00  0.00E+00  0.00E+00  0.00E+00  3.38E-07  7.70E-05  9.28E-03  0.00000
   1510.    6.623  4.28E-07  9.76E-05  0.00E+00  0.00E+00  0.00E+00  0.00E+00  4.28E-07  9.76E-05  9.28E-03  0.00000
   1512.    6.614  4.98E-07  1.14E-04  0.00E+00  0.00E+00  0.00E+00  0.00E+00  4.98E-07  1.14E-04  9.28E-03  0.00000
   1514.    6.605  5.30E-07  1.22E-04  0.00E+00  0.00E+00  0.00E+00  0.00E+00  5.30E-07  1.22E-04  9.28E-03  0.00000
   1516.    6.596  4.27E-07  9.81E-05  0.00E+00  0.00E+00  0.00E+00  0.00E+00  4.27E-07  9.81E-05  9.29E-03  0.00000
   1518.    6.588  4.09E-07  9.42E-05  0.00E+00  0.00E+00  0.00E+00  0.00E+00  4.09E-07  9.42E-05  9.29E-03  0.00000
   1520.    6.579  3.75E-07  8.65E-05  0.00E+00  0.00E+00  0.00E+00  0.00E+00  3.75E-07  8.65E-05  9.29E-03  0.00000
   1522.    6.570  3.32E-07  7.70E-05  0.00E+00  0.00E+00  0.00E+00  0.00E+00  3.32E-07  7.70E-05  9.29E-03  0.00000
   1524.    6.562  3.85E-07  8.94E-05  0.00E+00  0.00E+00  0.00E+00  0.00E+00  3.85E-07  8.94E-05  9.29E-03  0.00000
   1526.    6.553  4.27E-07  9.95E-05  0.00E+00  0.00E+00  0.00E+00  0.00E+00  4.27E-07  9.95E-05  9.29E-03  0.00000
   1528.    6.545  4.74E-07  1.11E-04  0.00E+00  0.00E+00  0.00E+00  0.00E+00  4.74E-07  1.11E-04  9.29E-03  0.00000
   1530.    6.536  5.32E-07  1.24E-04  0.00E+00  0.00E+00  0.00E+00  0.00E+00  5.32E-07  1.24E-04  9.29E-03  0.00000
   1532.    6.527  4.46E-07  1.05E-04  0.00E+00  0.00E+00  0.00E+00  0.00E+00  4.46E-07  1.05E-04  9.29E-03  0.00000
   1534.    6.519  3.77E-07  8.87E-05  0.00E+00  0.00E+00  0.00E+00  0.00E+00  3.77E-07  8.87E-05  9.29E-03  0.00000
   1536.    6.510  4.57E-07  1.08E-04  0.00E+00  0.00E+00  0.00E+00  0.00E+00  4.57E-07  1.08E-04  9.29E-03  0.00000
   1538.    6.502  3.48E-07  8.23E-05  0.00E+00  0.00E+00  0.00E+00  0.00E+00  3.48E-07  8.23E-05  9.29E-03  0.00000
   1540.    6.494  2.50E-07  5.92E-05  0.00E+00  0.00E+00  0.00E+00  0.00E+00  2.50E-07  5.92E-05  9.30E-03  0.00000
   1542.    6.485  2.83E-07  6.73E-05  0.00E+00  0.00E+00  0.00E+00  0.00E+00  2.83E-07  6.73E-05  9.30E-03  0.00000
   1544.    6.477  3.50E-07  8.35E-05  0.00E+00  0.00E+00  0.00E+00  0.00E+00  3.50E-07  8.35E-05  9.30E-03  0.00000
   1546.    6.468  4.42E-07  1.06E-04  0.00E+00  0.00E+00  0.00E+00  0.00E+00  4.42E-07  1.06E-04  9.30E-03  0.00000
   1548.    6.460  5.18E-07  1.24E-04  0.00E+00  0.00E+00  0.00E+00  0.00E+00  5.18E-07  1.24E-04  9.30E-03  0.00000
   1550.    6.452  4.62E-07  1.11E-04  0.00E+00  0.00E+00  0.00E+00  0.00E+00  4.62E-07  1.11E-04  9.30E-03  0.00000
   1552.    6.443  4.52E-07  1.09E-04  0.00E+00  0.00E+00  0.00E+00  0.00E+00  4.52E-07  1.09E-04  9.30E-03  0.00000
   1554.    6.435  3.77E-07  9.09E-05  0.00E+00  0.00E+00  0.00E+00  0.00E+00  3.77E-07  9.09E-05  9.30E-03  0.00000
   1556.    6.427  3.28E-07  7.94E-05  0.00E+00  0.00E+00  0.00E+00  0.00E+00  3.28E-07  7.94E-05  9.30E-03  0.00000
   1558.    6.418  2.41E-07  5.86E-05  0.00E+00  0.00E+00  0.00E+00  0.00E+00  2.41E-07  5.86E-05  9.30E-03  0.00000
   1560.    6.410  2.48E-07  6.04E-05  0.00E+00  0.00E+00  0.00E+00  0.00E+00  2.48E-07  6.04E-05  9.30E-03  0.00000
   1562.    6.402  3.89E-07  9.49E-05  0.00E+00  0.00E+00  0.00E+00  0.00E+00  3.89E-07  9.49E-05  9.30E-03  0.00000
   1564.    6.394  4.17E-07  1.02E-04  0.00E+00  0.00E+00  0.00E+00  0.00E+00  4.17E-07  1.02E-04  9.30E-03  0.00000
   1566.    6.386  4.44E-07  1.09E-04  0.00E+00  0.00E+00  0.00E+00  0.00E+00  4.44E-07  1.09E-04  9.30E-03  0.00000
   1568.    6.378  4.05E-07  9.96E-05  0.00E+00  0.00E+00  0.00E+00  0.00E+00  4.05E-07  9.96E-05  9.31E-03  0.00000
   1570.    6.369  3.43E-07  8.45E-05  0.00E+00  0.00E+00  0.00E+00  0.00E+00  3.43E-07  8.45E-05  9.31E-03  0.00000
   1572.    6.361  4.58E-07  1.13E-04  0.00E+00  0.00E+00  0.00E+00  0.00E+00  4.58E-07  1.13E-04  9.31E-03  0.00000
   1574.    6.353  4.22E-07  1.04E-04  0.00E+00  0.00E+00  0.00E+00  0.00E+00  4.22E-07  1.04E-04  9.31E-03  0.00000
   1576.    6.345  2.90E-07  7.20E-05  0.00E+00  0.00E+00  0.00E+00  0.00E+00  2.90E-07  7.20E-05  9.31E-03  0.00000
   1578.    6.337  3.76E-07  9.36E-05  0.00E+00  0.00E+00  0.00E+00  0.00E+00  3.76E-07  9.36E-05  9.31E-03  0.00000
   1580.    6.329  5.52E-07  1.38E-04  0.00E+00  0.00E+00  0.00E+00  0.00E+00  5.52E-07  1.38E-04  9.31E-03  0.00000
   1582.    6.321  6.25E-07  1.56E-04  4.96E-42  1.24E-39  0.00E+00  0.00E+00  6.25E-07  1.56E-04  9.31E-03  0.00000
   1584.    6.313  6.79E-07  1.70E-04  7.15E-37  1.79E-34  0.00E+00  0.00E+00  6.79E-07  1.70E-04  9.31E-03  0.00000
   1586.    6.305  7.10E-07  1.79E-04  3.52E-35  8.85E-33  0.00E+00  0.00E+00  7.10E-07  1.79E-04  9.31E-03  0.00000
   1588.    6.297  6.85E-07  1.73E-04  8.71E-35  2.20E-32  0.00E+00  0.00E+00  6.85E-07  1.73E-04  9.32E-03  0.00000
   1590.    6.289  6.01E-07  1.52E-04  2.67E-35  6.75E-33  0.00E+00  0.00E+00  6.01E-07  1.52E-04  9.32E-03  0.00000
   1592.    6.281  5.71E-07  1.45E-04  6.30E-35  1.60E-32  0.00E+00  0.00E+00  5.71E-07  1.45E-04  9.32E-03  0.00000
   1594.    6.274  5.22E-07  1.33E-04  1.89E-34  4.79E-32  0.00E+00  0.00E+00  5.22E-07  1.33E-04  9.32E-03  0.00000
   1596.    6.266  5.46E-07  1.39E-04  5.37E-33  1.37E-30  0.00E+00  0.00E+00  5.46E-07  1.39E-04  9.32E-03  0.00000
   1598.    6.258  6.70E-07  1.71E-04  5.96E-32  1.52E-29  0.00E+00  0.00E+00  6.70E-07  1.71E-04  9.32E-03  0.00000
   1600.    6.250  6.35E-07  1.63E-04  4.91E-32  1.26E-29  0.00E+00  0.00E+00  6.35E-07  1.63E-04  9.32E-03  0.00000
  iv         1605
1                                             RADIANCE(WATTS/CM2-STER-XXX)
0  FREQ   WAVLEN    PATH THERMAL      SURFACE EMISSION    SURFACE REFLECTED     TOTAL RADIANCE   INTEGRAL    TOTAL
  (CM-1) (MICRN)    (CM-1)   (MICRN)    (CM-1)   (MICRN)    (CM-1)   (MICRN)    (CM-1)   (MICRN)    (CM-1)   TRANS

   1602.    6.242  5.17E-07  1.33E-04  4.78E-35  1.23E-32  0.00E+00  0.00E+00  5.17E-07  1.33E-04  9.32E-03  0.00000
   1604.    6.234  5.56E-07  1.43E-04  3.10E-37  7.98E-35  0.00E+00  0.00E+00  5.56E-07  1.43E-04  9.33E-03  0.00000
   1606.    6.227  5.55E-07  1.43E-04  2.89E-37  7.46E-35  0.00E+00  0.00E+00  5.55E-07  1.43E-04  9.33E-03  0.00000
   1608.    6.219  4.47E-07  1.16E-04  3.95E-43  1.02E-40  0.00E+00  0.00E+00  4.47E-07  1.16E-04  9.33E-03  0.00000
   1610.    6.211  4.70E-07  1.22E-04  4.76E-44  1.23E-41  0.00E+00  0.00E+00  4.70E-07  1.22E-04  9.33E-03  0.00000
   1612.    6.203  5.25E-07  1.36E-04  0.00E+00  0.00E+00  0.00E+00  0.00E+00  5.25E-07  1.36E-04  9.33E-03  0.00000
   1614.    6.196  4.36E-07  1.14E-04  0.00E+00  0.00E+00  0.00E+00  0.00E+00  4.36E-07  1.14E-04  9.33E-03  0.00000
   1616.    6.188  2.76E-07  7.21E-05  3.01E-37  7.87E-35  0.00E+00  0.00E+00  2.76E-07  7.21E-05  9.33E-03  0.00000
   1618.    6.180  3.01E-07  7.88E-05  3.01E-37  7.89E-35  0.00E+00  0.00E+00  3.01E-07  7.88E-05  9.33E-03  0.00000
   1620.    6.173  4.08E-07  1.07E-04  0.00E+00  0.00E+00  0.00E+00  0.00E+00  4.08E-07  1.07E-04  9.33E-03  0.00000
   1622.    6.165  3.46E-07  9.11E-05  0.00E+00  0.00E+00  0.00E+00  0.00E+00  3.46E-07  9.11E-05  9.33E-03  0.00000
   1624.    6.158  2.91E-07  7.67E-05  0.00E+00  0.00E+00  0.00E+00  0.00E+00  2.91E-07  7.67E-05  9.33E-03  0.00000
   1626.    6.150  3.37E-07  8.90E-05  0.00E+00  0.00E+00  0.00E+00  0.00E+00  3.37E-07  8.90E-05  9.33E-03  0.00000
   1628.    6.143  3.32E-07  8.80E-05  0.00E+00  0.00E+00  0.00E+00  0.00E+00  3.32E-07  8.80E-05  9.33E-03  0.00000
   1630.    6.135  4.28E-07  1.14E-04  0.00E+00  0.00E+00  0.00E+00  0.00E+00  4.28E-07  1.14E-04  9.34E-03  0.00000
   1632.    6.127  4.24E-07  1.13E-04  0.00E+00  0.00E+00  0.00E+00  0.00E+00  4.24E-07  1.13E-04  9.34E-03  0.00000
   1634.    6.120  2.82E-07  7.52E-05  0.00E+00  0.00E+00  0.00E+00  0.00E+00  2.82E-07  7.52E-05  9.34E-03  0.00000
   1636.    6.112  2.04E-07  5.46E-05  0.00E+00  0.00E+00  0.00E+00  0.00E+00  2.04E-07  5.46E-05  9.34E-03  0.00000
   1638.    6.105  2.70E-07  7.24E-05  0.00E+00  0.00E+00  0.00E+00  0.00E+00  2.70E-07  7.24E-05  9.34E-03  0.00000
   1640.    6.098  3.54E-07  9.53E-05  0.00E+00  0.00E+00  0.00E+00  0.00E+00  3.54E-07  9.53E-05  9.34E-03  0.00000
   1642.    6.090  3.81E-07  1.03E-04  0.00E+00  0.00E+00  0.00E+00  0.00E+00  3.81E-07  1.03E-04  9.34E-03  0.00000
   1644.    6.083  3.18E-07  8.60E-05  0.00E+00  0.00E+00  0.00E+00  0.00E+00  3.18E-07  8.60E-05  9.34E-03  0.00000
   1646.    6.075  2.07E-07  5.62E-05  0.00E+00  0.00E+00  0.00E+00  0.00E+00  2.07E-07  5.62E-05  9.34E-03  0.00000
   1648.    6.068  2.19E-07  5.96E-05  0.00E+00  0.00E+00  0.00E+00  0.00E+00  2.19E-07  5.96E-05  9.34E-03  0.00000
   1650.    6.061  2.55E-07  6.94E-05  0.00E+00  0.00E+00  0.00E+00  0.00E+00  2.55E-07  6.94E-05  9.34E-03  0.00000
   1652.    6.053  1.79E-07  4.88E-05  0.00E+00  0.00E+00  0.00E+00  0.00E+00  1.79E-07  4.88E-05  9.34E-03  0.00000
   1654.    6.046  1.69E-07  4.62E-05  0.00E+00  0.00E+00  0.00E+00  0.00E+00  1.69E-07  4.62E-05  9.34E-03  0.00000
   1656.    6.039  2.74E-07  7.50E-05  0.00E+00  0.00E+00  0.00E+00  0.00E+00  2.74E-07  7.50E-05  9.34E-03  0.00000
   1658.    6.031  3.73E-07  1.03E-04  0.00E+00  0.00E+00  0.00E+00  0.00E+00  3.73E-07  1.03E-04  9.34E-03  0.00000
   1660.    6.024  3.67E-07  1.01E-04  0.00E+00  0.00E+00  0.00E+00  0.00E+00  3.67E-07  1.01E-04  9.34E-03  0.00000
   1662.    6.017  2.69E-07  7.44E-05  0.00E+00  0.00E+00  0.00E+00  0.00E+00  2.69E-07  7.44E-05  9.34E-03  0.00000
   1664.    6.010  3.03E-07  8.40E-05  0.00E+00  0.00E+00  0.00E+00  0.00E+00  3.03E-07  8.40E-05  9.35E-03  0.00000
   1666.    6.002  3.61E-07  1.00E-04  0.00E+00  0.00E+00  0.00E+00  0.00E+00  3.61E-07  1.00E-04  9.35E-03  0.00000
   1668.    5.995  2.58E-07  7.17E-05  0.00E+00  0.00E+00  0.00E+00  0.00E+00  2.58E-07  7.17E-05  9.35E-03  0.00000
   1670.    5.988  1.97E-07  5.50E-05  0.00E+00  0.00E+00  0.00E+00  0.00E+00  1.97E-07  5.50E-05  9.35E-03  0.00000
   1672.    5.981  2.43E-07  6.78E-05  0.00E+00  0.00E+00  0.00E+00  0.00E+00  2.43E-07  6.78E-05  9.35E-03  0.00000
   1674.    5.974  2.48E-07  6.96E-05  0.00E+00  0.00E+00  0.00E+00  0.00E+00  2.48E-07  6.96E-05  9.35E-03  0.00000
   1676.    5.967  2.30E-07  6.46E-05  0.00E+00  0.00E+00  0.00E+00  0.00E+00  2.30E-07  6.46E-05  9.35E-03  0.00000
   1678.    5.959  2.91E-07  8.20E-05  0.00E+00  0.00E+00  0.00E+00  0.00E+00  2.91E-07  8.20E-05  9.35E-03  0.00000
   1680.    5.952  2.72E-07  7.67E-05  0.00E+00  0.00E+00  0.00E+00  0.00E+00  2.72E-07  7.67E-05  9.35E-03  0.00000
   1682.    5.945  2.30E-07  6.49E-05  0.00E+00  0.00E+00  0.00E+00  0.00E+00  2.30E-07  6.49E-05  9.35E-03  0.00000
   1684.    5.938  1.62E-07  4.60E-05  0.00E+00  0.00E+00  0.00E+00  0.00E+00  1.62E-07  4.60E-05  9.35E-03  0.00000
   1686.    5.931  2.07E-07  5.89E-05  0.00E+00  0.00E+00  0.00E+00  0.00E+00  2.07E-07  5.89E-05  9.35E-03  0.00000
   1688.    5.924  2.55E-07  7.27E-05  0.00E+00  0.00E+00  0.00E+00  0.00E+00  2.55E-07  7.27E-05  9.35E-03  0.00000
   1690.    5.917  2.66E-07  7.60E-05  0.00E+00  0.00E+00  0.00E+00  0.00E+00  2.66E-07  7.60E-05  9.35E-03  0.00000
   1692.    5.910  2.95E-07  8.43E-05  0.00E+00  0.00E+00  0.00E+00  0.00E+00  2.95E-07  8.43E-05  9.35E-03  0.00000
   1694.    5.903  2.34E-07  6.72E-05  0.00E+00  0.00E+00  0.00E+00  0.00E+00  2.34E-07  6.72E-05  9.35E-03  0.00000
   1696.    5.896  1.69E-07  4.87E-05  0.00E+00  0.00E+00  0.00E+00  0.00E+00  1.69E-07  4.87E-05  9.35E-03  0.00000
   1698.    5.889  1.75E-07  5.03E-05  0.00E+00  0.00E+00  0.00E+00  0.00E+00  1.75E-07  5.03E-05  9.35E-03  0.00000
   1700.    5.882  1.42E-07  4.12E-05  0.00E+00  0.00E+00  0.00E+00  0.00E+00  1.42E-07  4.12E-05  9.35E-03  0.00000
  iv         1705
1                                             RADIANCE(WATTS/CM2-STER-XXX)
0  FREQ   WAVLEN    PATH THERMAL      SURFACE EMISSION    SURFACE REFLECTED     TOTAL RADIANCE   INTEGRAL    TOTAL
  (CM-1) (MICRN)    (CM-1)   (MICRN)    (CM-1)   (MICRN)    (CM-1)   (MICRN)    (CM-1)   (MICRN)    (CM-1)   TRANS

   1702.    5.875  1.86E-07  5.38E-05  0.00E+00  0.00E+00  0.00E+00  0.00E+00  1.86E-07  5.38E-05  9.35E-03  0.00000
   1704.    5.869  2.02E-07  5.87E-05  0.00E+00  0.00E+00  0.00E+00  0.00E+00  2.02E-07  5.87E-05  9.35E-03  0.00000
   1706.    5.862  1.94E-07  5.65E-05  0.00E+00  0.00E+00  0.00E+00  0.00E+00  1.94E-07  5.65E-05  9.35E-03  0.00000
   1708.    5.855  2.63E-07  7.68E-05  0.00E+00  0.00E+00  0.00E+00  0.00E+00  2.63E-07  7.68E-05  9.36E-03  0.00000
   1710.    5.848  2.89E-07  8.44E-05  0.00E+00  0.00E+00  0.00E+00  0.00E+00  2.89E-07  8.44E-05  9.36E-03  0.00000
   1712.    5.841  2.89E-07  8.46E-05  0.00E+00  0.00E+00  0.00E+00  0.00E+00  2.89E-07  8.46E-05  9.36E-03  0.00000
   1714.    5.834  2.25E-07  6.60E-05  0.00E+00  0.00E+00  0.00E+00  0.00E+00  2.25E-07  6.60E-05  9.36E-03  0.00000
   1716.    5.828  1.69E-07  4.98E-05  0.00E+00  0.00E+00  0.00E+00  0.00E+00  1.69E-07  4.98E-05  9.36E-03  0.00000
   1718.    5.821  1.62E-07  4.79E-05  0.00E+00  0.00E+00  0.00E+00  0.00E+00  1.62E-07  4.79E-05  9.36E-03  0.00000
   1720.    5.814  2.47E-07  7.31E-05  0.00E+00  0.00E+00  0.00E+00  0.00E+00  2.47E-07  7.31E-05  9.36E-03  0.00000
   1722.    5.807  3.03E-07  8.97E-05  0.00E+00  0.00E+00  0.00E+00  0.00E+00  3.03E-07  8.97E-05  9.36E-03  0.00000
   1724.    5.800  3.28E-07  9.76E-05  0.00E+00  0.00E+00  0.00E+00  0.00E+00  3.28E-07  9.76E-05  9.36E-03  0.00000
   1726.    5.794  3.60E-07  1.07E-04  0.00E+00  0.00E+00  0.00E+00  0.00E+00  3.60E-07  1.07E-04  9.36E-03  0.00000
   1728.    5.787  3.26E-07  9.75E-05  0.00E+00  0.00E+00  0.00E+00  0.00E+00  3.26E-07  9.75E-05  9.36E-03  0.00000
   1730.    5.780  2.46E-07  7.35E-05  0.00E+00  0.00E+00  0.00E+00  0.00E+00  2.46E-07  7.35E-05  9.36E-03  0.00000
   1732.    5.774  1.93E-07  5.79E-05  0.00E+00  0.00E+00  0.00E+00  0.00E+00  1.93E-07  5.79E-05  9.36E-03  0.00000
   1734.    5.767  1.48E-07  4.46E-05  0.00E+00  0.00E+00  0.00E+00  0.00E+00  1.48E-07  4.46E-05  9.36E-03  0.00000
   1736.    5.760  2.00E-07  6.04E-05  0.00E+00  0.00E+00  0.00E+00  0.00E+00  2.00E-07  6.04E-05  9.36E-03  0.00000
   1738.    5.754  2.10E-07  6.35E-05  0.00E+00  0.00E+00  0.00E+00  0.00E+00  2.10E-07  6.35E-05  9.36E-03  0.00000
   1740.    5.747  1.88E-07  5.70E-05  0.00E+00  0.00E+00  0.00E+00  0.00E+00  1.88E-07  5.70E-05  9.36E-03  0.00000
   1742.    5.741  2.29E-07  6.94E-05  0.00E+00  0.00E+00  0.00E+00  0.00E+00  2.29E-07  6.94E-05  9.36E-03  0.00000
   1744.    5.734  2.18E-07  6.62E-05  0.00E+00  0.00E+00  0.00E+00  0.00E+00  2.18E-07  6.62E-05  9.36E-03  0.00000
   1746.    5.727  2.14E-07  6.53E-05  0.00E+00  0.00E+00  0.00E+00  0.00E+00  2.14E-07  6.53E-05  9.36E-03  0.00000
   1748.    5.721  1.85E-07  5.64E-05  0.00E+00  0.00E+00  0.00E+00  0.00E+00  1.85E-07  5.64E-05  9.36E-03  0.00000
   1750.    5.714  1.83E-07  5.60E-05  0.00E+00  0.00E+00  0.00E+00  0.00E+00  1.83E-07  5.60E-05  9.37E-03  0.00000
   1752.    5.708  2.31E-07  7.10E-05  0.00E+00  0.00E+00  0.00E+00  0.00E+00  2.31E-07  7.10E-05  9.37E-03  0.00000
   1754.    5.701  3.07E-07  9.44E-05  0.00E+00  0.00E+00  0.00E+00  0.00E+00  3.07E-07  9.44E-05  9.37E-03  0.00000
   1756.    5.695  2.67E-07  8.23E-05  5.00E-37  1.54E-34  0.00E+00  0.00E+00  2.67E-07  8.23E-05  9.37E-03  0.00000
   1758.    5.688  2.60E-07  8.04E-05  5.00E-37  1.55E-34  0.00E+00  0.00E+00  2.60E-07  8.04E-05  9.37E-03  0.00000
   1760.    5.682  2.55E-07  7.90E-05  1.90E-33  5.87E-31  0.00E+00  0.00E+00  2.55E-07  7.90E-05  9.37E-03  0.00000
   1762.    5.675  2.11E-07  6.56E-05  5.69E-33  1.77E-30  0.00E+00  0.00E+00  2.11E-07  6.56E-05  9.37E-03  0.00000
   1764.    5.669  2.91E-07  9.05E-05  1.90E-33  5.90E-31  0.00E+00  0.00E+00  2.91E-07  9.05E-05  9.37E-03  0.00000
   1766.    5.663  3.15E-07  9.84E-05  1.63E-43  5.07E-41  0.00E+00  0.00E+00  3.15E-07  9.84E-05  9.37E-03  0.00000
   1768.    5.656  2.35E-07  7.35E-05  4.90E-44  1.53E-41  0.00E+00  0.00E+00  2.35E-07  7.35E-05  9.37E-03  0.00000
   1770.    5.650  1.87E-07  5.87E-05  0.00E+00  0.00E+00  0.00E+00  0.00E+00  1.87E-07  5.87E-05  9.37E-03  0.00000
   1772.    5.643  1.39E-07  4.38E-05  0.00E+00  0.00E+00  0.00E+00  0.00E+00  1.39E-07  4.38E-05  9.37E-03  0.00000
   1774.    5.637  1.77E-07  5.57E-05  0.00E+00  0.00E+00  0.00E+00  0.00E+00  1.77E-07  5.57E-05  9.37E-03  0.00000
   1776.    5.631  2.44E-07  7.71E-05  4.09E-43  1.29E-40  0.00E+00  0.00E+00  2.44E-07  7.71E-05  9.37E-03  0.00000
   1778.    5.624  2.77E-07  8.76E-05  1.23E-42  3.88E-40  0.00E+00  0.00E+00  2.77E-07  8.76E-05  9.37E-03  0.00000
   1780.    5.618  2.26E-07  7.15E-05  8.66E-38  2.74E-35  0.00E+00  0.00E+00  2.26E-07  7.15E-05  9.37E-03  0.00000
   1782.    5.612  2.53E-07  8.02E-05  9.76E-38  3.10E-35  0.00E+00  0.00E+00  2.53E-07  8.02E-05  9.37E-03  0.00000
   1784.    5.605  2.77E-07  8.81E-05  1.77E-31  5.65E-29  0.00E+00  0.00E+00  2.77E-07  8.81E-05  9.37E-03  0.00000
   1786.    5.599  3.21E-07  1.03E-04  1.13E-28  3.60E-26  0.00E+00  0.00E+00  3.21E-07  1.03E-04  9.37E-03  0.00000
   1788.    5.593  3.37E-07  1.08E-04  1.13E-28  3.60E-26  0.00E+00  0.00E+00  3.37E-07  1.08E-04  9.37E-03  0.00000
   1790.    5.587  2.35E-07  7.53E-05  7.26E-33  2.33E-30  0.00E+00  0.00E+00  2.35E-07  7.53E-05  9.38E-03  0.00000
   1792.    5.580  1.54E-07  4.95E-05  5.14E-29  1.65E-26  0.00E+00  0.00E+00  1.54E-07  4.95E-05  9.38E-03  0.00000
   1794.    5.574  1.80E-07  5.78E-05  5.14E-29  1.66E-26  0.00E+00  0.00E+00  1.80E-07  5.78E-05  9.38E-03  0.00000
   1796.    5.568  2.24E-07  7.22E-05  1.99E-43  6.42E-41  0.00E+00  0.00E+00  2.24E-07  7.22E-05  9.38E-03  0.00000
   1798.    5.562  2.40E-07  7.76E-05  1.87E-28  6.04E-26  0.00E+00  0.00E+00  2.40E-07  7.76E-05  9.38E-03  0.00000
   1800.    5.556  1.90E-07  6.15E-05  5.60E-28  1.82E-25  0.00E+00  0.00E+00  1.90E-07  6.15E-05  9.38E-03  0.00000
  iv         1805
1                                             RADIANCE(WATTS/CM2-STER-XXX)
0  FREQ   WAVLEN    PATH THERMAL      SURFACE EMISSION    SURFACE REFLECTED     TOTAL RADIANCE   INTEGRAL    TOTAL
  (CM-1) (MICRN)    (CM-1)   (MICRN)    (CM-1)   (MICRN)    (CM-1)   (MICRN)    (CM-1)   (MICRN)    (CM-1)   TRANS

   1802.    5.549  2.35E-07  7.62E-05  8.65E-26  2.81E-23  0.00E+00  0.00E+00  2.35E-07  7.62E-05  9.38E-03  0.00000
   1804.    5.543  3.29E-07  1.07E-04  2.78E-23  9.04E-21  0.00E+00  0.00E+00  3.29E-07  1.07E-04  9.38E-03  0.00000
   1806.    5.537  3.46E-07  1.13E-04  4.85E-23  1.58E-20  0.00E+00  0.00E+00  3.46E-07  1.13E-04  9.38E-03  0.00000
   1808.    5.531  3.06E-07  9.99E-05  6.24E-23  2.04E-20  0.00E+00  0.00E+00  3.06E-07  9.99E-05  9.38E-03  0.00000
   1810.    5.525  2.34E-07  7.65E-05  4.20E-22  1.37E-19  0.00E+00  0.00E+00  2.34E-07  7.65E-05  9.38E-03  0.00000
   1812.    5.519  2.57E-07  8.44E-05  1.13E-19  3.72E-17  0.00E+00  0.00E+00  2.57E-07  8.44E-05  9.38E-03  0.00000
   1814.    5.513  3.96E-07  1.30E-04  2.20E-17  7.25E-15  0.00E+00  0.00E+00  3.96E-07  1.30E-04  9.38E-03  0.00000
   1816.    5.507  4.03E-07  1.33E-04  3.27E-17  1.08E-14  0.00E+00  0.00E+00  4.03E-07  1.33E-04  9.38E-03  0.00000
   1818.    5.501  4.12E-07  1.36E-04  5.15E-16  1.70E-13  0.00E+00  0.00E+00  4.12E-07  1.36E-04  9.38E-03  0.00000
   1820.    5.495  4.28E-07  1.42E-04  5.84E-16  1.93E-13  0.00E+00  0.00E+00  4.28E-07  1.42E-04  9.38E-03  0.00000
   1822.    5.488  3.36E-07  1.12E-04  3.75E-17  1.24E-14  0.00E+00  0.00E+00  3.36E-07  1.12E-04  9.38E-03  0.00000
   1824.    5.482  2.30E-07  7.66E-05  4.45E-22  1.48E-19  0.00E+00  0.00E+00  2.30E-07  7.66E-05  9.39E-03  0.00000
   1826.    5.476  2.03E-07  6.78E-05  4.45E-22  1.48E-19  0.00E+00  0.00E+00  2.03E-07  6.78E-05  9.39E-03  0.00000
   1828.    5.470  2.05E-07  6.84E-05  0.00E+00  0.00E+00  0.00E+00  0.00E+00  2.05E-07  6.84E-05  9.39E-03  0.00000
   1830.    5.464  1.53E-07  5.12E-05  0.00E+00  0.00E+00  0.00E+00  0.00E+00  1.53E-07  5.12E-05  9.39E-03  0.00000
   1832.    5.459  2.41E-07  8.10E-05  8.43E-24  2.83E-21  0.00E+00  0.00E+00  2.41E-07  8.10E-05  9.39E-03  0.00000
   1834.    5.453  3.21E-07  1.08E-04  2.09E-22  7.03E-20  0.00E+00  0.00E+00  3.21E-07  1.08E-04  9.39E-03  0.00000
   1836.    5.447  2.82E-07  9.50E-05  9.97E-20  3.36E-17  0.00E+00  0.00E+00  2.82E-07  9.50E-05  9.39E-03  0.00000
   1838.    5.441  2.79E-07  9.44E-05  1.00E-19  3.38E-17  0.00E+00  0.00E+00  2.79E-07  9.44E-05  9.39E-03  0.00000
   1840.    5.435  3.27E-07  1.11E-04  1.23E-21  4.16E-19  0.00E+00  0.00E+00  3.27E-07  1.11E-04  9.39E-03  0.00000
   1842.    5.429  2.36E-07  8.00E-05  4.57E-22  1.55E-19  0.00E+00  0.00E+00  2.36E-07  8.00E-05  9.39E-03  0.00000
   1844.    5.423  1.37E-07  4.66E-05  2.94E-22  1.00E-19  0.00E+00  0.00E+00  1.37E-07  4.66E-05  9.39E-03  0.00000
   1846.    5.417  1.69E-07  5.75E-05  1.06E-22  3.61E-20  0.00E+00  0.00E+00  1.69E-07  5.75E-05  9.39E-03  0.00000
   1848.    5.411  2.43E-07  8.31E-05  3.06E-18  1.05E-15  0.00E+00  0.00E+00  2.43E-07  8.31E-05  9.39E-03  0.00000
   1850.    5.405  3.60E-07  1.23E-04  5.76E-15  1.97E-12  0.00E+00  0.00E+00  3.60E-07  1.23E-04  9.39E-03  0.00000
   1852.    5.400  4.12E-07  1.41E-04  2.41E-13  8.27E-11  0.00E+00  0.00E+00  4.12E-07  1.41E-04  9.39E-03  0.00000
   1854.    5.394  4.45E-07  1.53E-04  2.87E-12  9.86E-10  0.00E+00  0.00E+00  4.45E-07  1.53E-04  9.39E-03  0.00000
   1856.    5.388  4.42E-07  1.52E-04  3.28E-12  1.13E-09  0.00E+00  0.00E+00  4.42E-07  1.52E-04  9.39E-03  0.00000
   1858.    5.382  3.66E-07  1.26E-04  6.00E-13  2.07E-10  0.00E+00  0.00E+00  3.66E-07  1.26E-04  9.39E-03  0.00000
   1860.    5.376  3.38E-07  1.17E-04  8.77E-15  3.04E-12  0.00E+00  0.00E+00  3.38E-07  1.17E-04  9.40E-03  0.00000
   1862.    5.371  3.74E-07  1.30E-04  2.13E-14  7.39E-12  0.00E+00  0.00E+00  3.74E-07  1.30E-04  9.40E-03  0.00000
   1864.    5.365  3.38E-07  1.17E-04  1.24E-14  4.29E-12  0.00E+00  0.00E+00  3.38E-07  1.17E-04  9.40E-03  0.00000
   1866.    5.359  2.10E-07  7.30E-05  9.63E-18  3.35E-15  0.00E+00  0.00E+00  2.10E-07  7.30E-05  9.40E-03  0.00000
   1868.    5.353  1.26E-07  4.38E-05  8.90E-27  3.11E-24  0.00E+00  0.00E+00  1.26E-07  4.38E-05  9.40E-03  0.00000
   1870.    5.348  1.64E-07  5.75E-05  1.51E-21  5.27E-19  0.00E+00  0.00E+00  1.64E-07  5.75E-05  9.40E-03  0.00000
   1872.    5.342  3.16E-07  1.11E-04  2.17E-13  7.61E-11  0.00E+00  0.00E+00  3.16E-07  1.11E-04  9.40E-03  0.00000
   1874.    5.336  4.37E-07  1.53E-04  1.03E-11  3.61E-09  0.00E+00  0.00E+00  4.37E-07  1.53E-04  9.40E-03  0.00001
   1876.    5.330  4.62E-07  1.63E-04  6.28E-11  2.21E-08  0.00E+00  0.00E+00  4.62E-07  1.63E-04  9.40E-03  0.00006
   1878.    5.325  4.49E-07  1.58E-04  1.31E-10  4.63E-08  0.00E+00  0.00E+00  4.49E-07  1.58E-04  9.40E-03  0.00013
   1880.    5.319  4.58E-07  1.62E-04  2.85E-10  1.01E-07  0.00E+00  0.00E+00  4.58E-07  1.62E-04  9.40E-03  0.00030
   1882.    5.313  4.75E-07  1.68E-04  3.89E-10  1.38E-07  0.00E+00  0.00E+00  4.76E-07  1.68E-04  9.40E-03  0.00040
   1884.    5.308  3.53E-07  1.25E-04  8.77E-11  3.11E-08  0.00E+00  0.00E+00  3.53E-07  1.25E-04  9.40E-03  0.00009
   1886.    5.302  3.26E-07  1.16E-04  1.38E-14  4.90E-12  0.00E+00  0.00E+00  3.26E-07  1.16E-04  9.40E-03  0.00000
   1888.    5.297  2.83E-07  1.01E-04  4.96E-13  1.77E-10  0.00E+00  0.00E+00  2.83E-07  1.01E-04  9.40E-03  0.00000
   1890.    5.291  2.02E-07  7.22E-05  1.46E-12  5.21E-10  0.00E+00  0.00E+00  2.02E-07  7.22E-05  9.41E-03  0.00000
   1892.    5.285  2.95E-07  1.05E-04  4.88E-13  1.75E-10  0.00E+00  0.00E+00  2.95E-07  1.05E-04  9.41E-03  0.00000
   1894.    5.280  2.69E-07  9.63E-05  4.80E-15  1.72E-12  0.00E+00  0.00E+00  2.69E-07  9.63E-05  9.41E-03  0.00000
   1896.    5.274  2.69E-07  9.67E-05  6.84E-12  2.46E-09  0.00E+00  0.00E+00  2.69E-07  9.67E-05  9.41E-03  0.00001
   1898.    5.269  4.11E-07  1.48E-04  5.05E-10  1.82E-07  0.00E+00  0.00E+00  4.12E-07  1.48E-04  9.41E-03  0.00056
   1900.    5.263  4.70E-07  1.70E-04  1.27E-09  4.57E-07  0.00E+00  0.00E+00  4.71E-07  1.70E-04  9.41E-03  0.00140
  iv         1905
1                                             RADIANCE(WATTS/CM2-STER-XXX)
0  FREQ   WAVLEN    PATH THERMAL      SURFACE EMISSION    SURFACE REFLECTED     TOTAL RADIANCE   INTEGRAL    TOTAL
  (CM-1) (MICRN)    (CM-1)   (MICRN)    (CM-1)   (MICRN)    (CM-1)   (MICRN)    (CM-1)   (MICRN)    (CM-1)   TRANS

   1902.    5.258  4.08E-07  1.47E-04  5.24E-10  1.89E-07  0.00E+00  0.00E+00  4.08E-07  1.48E-04  9.41E-03  0.00058
   1904.    5.252  3.32E-07  1.20E-04  4.45E-11  1.61E-08  0.00E+00  0.00E+00  3.32E-07  1.20E-04  9.41E-03  0.00005
   1906.    5.247  3.07E-07  1.12E-04  3.44E-12  1.25E-09  0.00E+00  0.00E+00  3.07E-07  1.12E-04  9.41E-03  0.00000
   1908.    5.241  2.13E-07  7.74E-05  1.02E-12  3.73E-10  0.00E+00  0.00E+00  2.13E-07  7.74E-05  9.41E-03  0.00000
   1910.    5.236  2.16E-07  7.87E-05  1.20E-12  4.36E-10  0.00E+00  0.00E+00  2.16E-07  7.87E-05  9.41E-03  0.00000
   1912.    5.230  3.32E-07  1.21E-04  1.05E-11  3.82E-09  0.00E+00  0.00E+00  3.32E-07  1.21E-04  9.41E-03  0.00001
   1914.    5.225  3.55E-07  1.30E-04  1.25E-11  4.56E-09  0.00E+00  0.00E+00  3.55E-07  1.30E-04  9.41E-03  0.00001
   1916.    5.219  2.73E-07  1.00E-04  1.78E-12  6.53E-10  0.00E+00  0.00E+00  2.73E-07  1.00E-04  9.41E-03  0.00000
   1918.    5.214  1.63E-07  5.99E-05  1.36E-15  5.00E-13  0.00E+00  0.00E+00  1.63E-07  5.99E-05  9.41E-03  0.00000
   1920.    5.208  1.95E-07  7.20E-05  4.31E-16  1.59E-13  0.00E+00  0.00E+00  1.95E-07  7.20E-05  9.41E-03  0.00000
   1922.    5.203  1.82E-07  6.72E-05  2.66E-22  9.83E-20  0.00E+00  0.00E+00  1.82E-07  6.72E-05  9.41E-03  0.00000
   1924.    5.198  2.16E-07  7.98E-05  5.67E-12  2.10E-09  0.00E+00  0.00E+00  2.16E-07  7.98E-05  9.42E-03  0.00001
   1926.    5.192  3.63E-07  1.35E-04  3.35E-10  1.24E-07  0.00E+00  0.00E+00  3.63E-07  1.35E-04  9.42E-03  0.00040
   1928.    5.187  4.44E-07  1.65E-04  4.12E-09  1.53E-06  0.00E+00  0.00E+00  4.49E-07  1.67E-04  9.42E-03  0.00498
   1930.    5.181  4.71E-07  1.75E-04  8.83E-09  3.29E-06  0.00E+00  0.00E+00  4.79E-07  1.79E-04  9.42E-03  0.01071
   1932.    5.176  3.57E-07  1.33E-04  3.95E-09  1.48E-06  0.00E+00  0.00E+00  3.61E-07  1.35E-04  9.42E-03  0.00481
   1934.    5.171  3.38E-07  1.26E-04  2.72E-09  1.02E-06  0.00E+00  0.00E+00  3.40E-07  1.27E-04  9.42E-03  0.00336
   1936.    5.165  4.37E-07  1.64E-04  6.18E-09  2.32E-06  0.00E+00  0.00E+00  4.43E-07  1.66E-04  9.42E-03  0.00765
   1938.    5.160  4.20E-07  1.58E-04  2.81E-09  1.06E-06  0.00E+00  0.00E+00  4.23E-07  1.59E-04  9.42E-03  0.00349
   1940.    5.155  3.37E-07  1.27E-04  3.76E-10  1.42E-07  0.00E+00  0.00E+00  3.38E-07  1.27E-04  9.42E-03  0.00047
   1942.    5.149  1.96E-07  7.40E-05  1.81E-12  6.81E-10  0.00E+00  0.00E+00  1.96E-07  7.40E-05  9.42E-03  0.00000
   1944.    5.144  1.68E-07  6.34E-05  6.83E-16  2.58E-13  0.00E+00  0.00E+00  1.68E-07  6.34E-05  9.42E-03  0.00000
   1946.    5.139  2.20E-07  8.33E-05  9.18E-11  3.48E-08  0.00E+00  0.00E+00  2.20E-07  8.33E-05  9.42E-03  0.00012
   1948.    5.133  3.44E-07  1.31E-04  9.08E-10  3.45E-07  0.00E+00  0.00E+00  3.45E-07  1.31E-04  9.42E-03  0.00117
   1950.    5.128  4.18E-07  1.59E-04  6.70E-09  2.55E-06  0.00E+00  0.00E+00  4.24E-07  1.61E-04  9.42E-03  0.00871
   1952.    5.123  4.37E-07  1.67E-04  1.44E-08  5.48E-06  0.00E+00  0.00E+00  4.51E-07  1.72E-04  9.43E-03  0.01875
   1954.    5.118  3.44E-07  1.32E-04  6.15E-09  2.35E-06  0.00E+00  0.00E+00  3.51E-07  1.34E-04  9.43E-03  0.00803
   1956.    5.112  3.13E-07  1.20E-04  1.15E-09  4.39E-07  0.00E+00  0.00E+00  3.14E-07  1.20E-04  9.43E-03  0.00152
   1958.    5.107  3.99E-07  1.53E-04  1.15E-08  4.42E-06  0.00E+00  0.00E+00  4.10E-07  1.57E-04  9.43E-03  0.01535
   1960.    5.102  3.78E-07  1.45E-04  1.14E-08  4.39E-06  0.00E+00  0.00E+00  3.89E-07  1.50E-04  9.43E-03  0.01523
   1962.    5.097  3.62E-07  1.40E-04  4.88E-09  1.88E-06  0.00E+00  0.00E+00  3.67E-07  1.41E-04  9.43E-03  0.00658
   1964.    5.092  3.79E-07  1.46E-04  5.42E-09  2.09E-06  0.00E+00  0.00E+00  3.84E-07  1.48E-04  9.43E-03  0.00732
   1966.    5.086  2.34E-07  9.04E-05  7.23E-10  2.80E-07  0.00E+00  0.00E+00  2.35E-07  9.07E-05  9.43E-03  0.00098
   1968.    5.081  2.42E-07  9.36E-05  7.21E-10  2.79E-07  0.00E+00  0.00E+00  2.42E-07  9.38E-05  9.43E-03  0.00100
   1970.    5.076  3.91E-07  1.52E-04  2.02E-08  7.82E-06  0.00E+00  0.00E+00  4.11E-07  1.60E-04  9.43E-03  0.02796
   1972.    5.071  4.34E-07  1.69E-04  7.00E-08  2.72E-05  0.00E+00  0.00E+00  5.04E-07  1.96E-04  9.43E-03  0.09747
   1974.    5.066  4.16E-07  1.62E-04  8.96E-08  3.49E-05  0.00E+00  0.00E+00  5.05E-07  1.97E-04  9.43E-03  0.12527
   1976.    5.061  3.92E-07  1.53E-04  5.73E-08  2.24E-05  0.00E+00  0.00E+00  4.50E-07  1.76E-04  9.43E-03  0.08068
   1978.    5.056  4.00E-07  1.57E-04  9.39E-08  3.67E-05  0.00E+00  0.00E+00  4.94E-07  1.93E-04  9.44E-03  0.13332
   1980.    5.051  3.97E-07  1.56E-04  1.16E-07  4.56E-05  0.00E+00  0.00E+00  5.14E-07  2.01E-04  9.44E-03  0.16577
   1982.    5.045  4.06E-07  1.59E-04  8.49E-08  3.33E-05  0.00E+00  0.00E+00  4.91E-07  1.93E-04  9.44E-03  0.12187
   1984.    5.040  4.14E-07  1.63E-04  6.18E-08  2.43E-05  0.00E+00  0.00E+00  4.75E-07  1.87E-04  9.44E-03  0.08921
   1986.    5.035  3.64E-07  1.43E-04  2.06E-08  8.13E-06  0.00E+00  0.00E+00  3.84E-07  1.52E-04  9.44E-03  0.02988
   1988.    5.030  2.58E-07  1.02E-04  1.65E-09  6.53E-07  0.00E+00  0.00E+00  2.60E-07  1.03E-04  9.44E-03  0.00241
   1990.    5.025  2.30E-07  9.09E-05  1.55E-11  6.15E-09  0.00E+00  0.00E+00  2.30E-07  9.09E-05  9.44E-03  0.00002
   1992.    5.020  1.75E-07  6.94E-05  1.63E-12  6.48E-10  0.00E+00  0.00E+00  1.75E-07  6.94E-05  9.44E-03  0.00000
   1994.    5.015  2.76E-07  1.10E-04  4.81E-09  1.91E-06  0.00E+00  0.00E+00  2.81E-07  1.12E-04  9.44E-03  0.00723
   1996.    5.010  3.84E-07  1.53E-04  2.04E-08  8.14E-06  0.00E+00  0.00E+00  4.04E-07  1.61E-04  9.44E-03  0.03078
   1998.    5.005  3.37E-07  1.35E-04  1.56E-08  6.23E-06  0.00E+00  0.00E+00  3.53E-07  1.41E-04  9.44E-03  0.02356
   2000.    5.000  3.38E-07  1.35E-04  4.72E-08  1.89E-05  0.00E+00  0.00E+00  3.85E-07  1.54E-04  9.44E-03  0.07213
  iv         2005
1                                             RADIANCE(WATTS/CM2-STER-XXX)
0  FREQ   WAVLEN    PATH THERMAL      SURFACE EMISSION    SURFACE REFLECTED     TOTAL RADIANCE   INTEGRAL    TOTAL
  (CM-1) (MICRN)    (CM-1)   (MICRN)    (CM-1)   (MICRN)    (CM-1)   (MICRN)    (CM-1)   (MICRN)    (CM-1)   TRANS

   2002.    4.995  3.66E-07  1.47E-04  1.21E-07  4.86E-05  0.00E+00  0.00E+00  4.87E-07  1.95E-04  9.44E-03  0.18632
   2004.    4.990  3.54E-07  1.42E-04  1.43E-07  5.76E-05  0.00E+00  0.00E+00  4.98E-07  2.00E-04  9.45E-03  0.22138
   2006.    4.985  3.47E-07  1.40E-04  7.88E-08  3.17E-05  0.00E+00  0.00E+00  4.26E-07  1.71E-04  9.45E-03  0.12209
   2008.    4.980  3.08E-07  1.24E-04  1.29E-08  5.22E-06  0.00E+00  0.00E+00  3.21E-07  1.29E-04  9.45E-03  0.02019
   2010.    4.975  3.37E-07  1.36E-04  4.50E-08  1.82E-05  0.00E+00  0.00E+00  3.82E-07  1.54E-04  9.45E-03  0.07113
   2012.    4.970  3.65E-07  1.48E-04  9.34E-08  3.78E-05  0.00E+00  0.00E+00  4.58E-07  1.85E-04  9.45E-03  0.14819
   2014.    4.965  3.50E-07  1.42E-04  5.51E-08  2.24E-05  0.00E+00  0.00E+00  4.05E-07  1.64E-04  9.45E-03  0.08773
   2016.    4.960  2.39E-07  9.72E-05  7.21E-09  2.93E-06  0.00E+00  0.00E+00  2.46E-07  1.00E-04  9.45E-03  0.01151
   2018.    4.955  1.81E-07  7.36E-05  3.58E-12  1.46E-09  0.00E+00  0.00E+00  1.81E-07  7.36E-05  9.45E-03  0.00001
   2020.    4.950  2.79E-07  1.14E-04  1.14E-08  4.66E-06  0.00E+00  0.00E+00  2.91E-07  1.19E-04  9.45E-03  0.01869
   2022.    4.946  3.31E-07  1.35E-04  2.21E-08  9.04E-06  0.00E+00  0.00E+00  3.53E-07  1.44E-04  9.45E-03  0.03622
   2024.    4.941  3.27E-07  1.34E-04  3.20E-08  1.31E-05  0.00E+00  0.00E+00  3.59E-07  1.47E-04  9.45E-03  0.05291
   2026.    4.936  3.18E-07  1.30E-04  3.90E-08  1.60E-05  0.00E+00  0.00E+00  3.57E-07  1.46E-04  9.45E-03  0.06474
   2028.    4.931  2.92E-07  1.20E-04  9.66E-08  3.97E-05  0.00E+00  0.00E+00  3.89E-07  1.60E-04  9.45E-03  0.16201
   2030.    4.926  2.71E-07  1.12E-04  2.05E-07  8.45E-05  0.00E+00  0.00E+00  4.76E-07  1.96E-04  9.45E-03  0.34552
   2032.    4.921  2.52E-07  1.04E-04  2.23E-07  9.21E-05  0.00E+00  0.00E+00  4.75E-07  1.96E-04  9.46E-03  0.37796
   2034.    4.916  2.79E-07  1.15E-04  1.51E-07  6.25E-05  0.00E+00  0.00E+00  4.30E-07  1.78E-04  9.46E-03  0.25751
   2036.    4.912  2.81E-07  1.17E-04  1.21E-07  5.01E-05  0.00E+00  0.00E+00  4.02E-07  1.67E-04  9.46E-03  0.20768
   2038.    4.907  2.86E-07  1.19E-04  6.33E-08  2.63E-05  0.00E+00  0.00E+00  3.49E-07  1.45E-04  9.46E-03  0.10924
   2040.    4.902  2.59E-07  1.08E-04  2.51E-08  1.04E-05  0.00E+00  0.00E+00  2.84E-07  1.18E-04  9.46E-03  0.04349
   2042.    4.897  2.25E-07  9.36E-05  1.68E-09  6.99E-07  0.00E+00  0.00E+00  2.26E-07  9.43E-05  9.46E-03  0.00294
   2044.    4.892  2.52E-07  1.05E-04  3.07E-08  1.28E-05  0.00E+00  0.00E+00  2.83E-07  1.18E-04  9.46E-03  0.05433
   2046.    4.888  2.67E-07  1.12E-04  6.20E-08  2.60E-05  0.00E+00  0.00E+00  3.29E-07  1.38E-04  9.46E-03  0.11028
   2048.    4.883  2.31E-07  9.70E-05  1.09E-07  4.59E-05  0.00E+00  0.00E+00  3.41E-07  1.43E-04  9.46E-03  0.19620
   2050.    4.878  2.01E-07  8.46E-05  1.56E-07  6.56E-05  0.00E+00  0.00E+00  3.57E-07  1.50E-04  9.46E-03  0.28109
   2052.    4.873  1.98E-07  8.35E-05  1.38E-07  5.82E-05  0.00E+00  0.00E+00  3.37E-07  1.42E-04  9.46E-03  0.25068
   2054.    4.869  1.94E-07  8.18E-05  1.36E-07  5.75E-05  0.00E+00  0.00E+00  3.30E-07  1.39E-04  9.46E-03  0.24891
   2056.    4.864  1.78E-07  7.54E-05  1.62E-07  6.84E-05  0.00E+00  0.00E+00  3.40E-07  1.44E-04  9.46E-03  0.29752
   2058.    4.859  1.93E-07  8.16E-05  1.18E-07  4.99E-05  0.00E+00  0.00E+00  3.11E-07  1.32E-04  9.46E-03  0.21760
   2060.    4.854  2.03E-07  8.61E-05  4.95E-08  2.10E-05  0.00E+00  0.00E+00  2.52E-07  1.07E-04  9.46E-03  0.09202
   2062.    4.850  2.09E-07  8.87E-05  4.58E-08  1.95E-05  0.00E+00  0.00E+00  2.55E-07  1.08E-04  9.47E-03  0.08598
   2064.    4.845  1.69E-07  7.21E-05  1.89E-08  8.04E-06  0.00E+00  0.00E+00  1.88E-07  8.01E-05  9.47E-03  0.03543
   2066.    4.840  1.76E-07  7.50E-05  1.88E-08  8.02E-06  0.00E+00  0.00E+00  1.94E-07  8.30E-05  9.47E-03  0.03588
   2068.    4.836  2.00E-07  8.53E-05  8.49E-08  3.63E-05  0.00E+00  0.00E+00  2.84E-07  1.22E-04  9.47E-03  0.16296
   2070.    4.831  1.69E-07  7.25E-05  1.53E-07  6.54E-05  0.00E+00  0.00E+00  3.22E-07  1.38E-04  9.47E-03  0.29439
   2072.    4.826  1.85E-07  7.94E-05  1.17E-07  5.04E-05  0.00E+00  0.00E+00  3.02E-07  1.30E-04  9.47E-03  0.22738
   2074.    4.822  2.08E-07  8.96E-05  6.94E-08  2.98E-05  0.00E+00  0.00E+00  2.78E-07  1.19E-04  9.47E-03  0.13550
   2076.    4.817  1.51E-07  6.53E-05  6.21E-08  2.68E-05  0.00E+00  0.00E+00  2.14E-07  9.21E-05  9.47E-03  0.12201
   2078.    4.812  1.05E-07  4.53E-05  3.14E-08  1.36E-05  0.00E+00  0.00E+00  1.36E-07  5.89E-05  9.47E-03  0.06227
   2080.    4.808  1.67E-07  7.21E-05  7.83E-08  3.39E-05  0.00E+00  0.00E+00  2.45E-07  1.06E-04  9.47E-03  0.15628
   2082.    4.803  1.70E-07  7.37E-05  1.35E-07  5.85E-05  0.00E+00  0.00E+00  3.05E-07  1.32E-04  9.47E-03  0.27092
   2084.    4.798  1.54E-07  6.67E-05  1.81E-07  7.88E-05  0.00E+00  0.00E+00  3.35E-07  1.46E-04  9.47E-03  0.36669
   2086.    4.794  1.83E-07  7.98E-05  1.26E-07  5.49E-05  0.00E+00  0.00E+00  3.10E-07  1.35E-04  9.47E-03  0.25607
   2088.    4.789  2.18E-07  9.51E-05  4.59E-08  2.00E-05  0.00E+00  0.00E+00  2.64E-07  1.15E-04  9.47E-03  0.09377
   2090.    4.785  2.03E-07  8.88E-05  2.57E-08  1.12E-05  0.00E+00  0.00E+00  2.29E-07  1.00E-04  9.47E-03  0.05296
   2092.    4.780  1.93E-07  8.46E-05  5.89E-08  2.58E-05  0.00E+00  0.00E+00  2.52E-07  1.10E-04  9.47E-03  0.12246
   2094.    4.776  1.74E-07  7.62E-05  1.01E-07  4.45E-05  0.00E+00  0.00E+00  2.75E-07  1.21E-04  9.47E-03  0.21222
   2096.    4.771  1.67E-07  7.33E-05  1.51E-07  6.62E-05  0.00E+00  0.00E+00  3.17E-07  1.39E-04  9.47E-03  0.31698
   2098.    4.766  1.59E-07  7.01E-05  1.67E-07  7.37E-05  0.00E+00  0.00E+00  3.27E-07  1.44E-04  9.47E-03  0.35479
   2100.    4.762  1.56E-07  6.90E-05  1.65E-07  7.27E-05  0.00E+00  0.00E+00  3.21E-07  1.42E-04  9.48E-03  0.35168
  iv         2105
1                                             RADIANCE(WATTS/CM2-STER-XXX)
0  FREQ   WAVLEN    PATH THERMAL      SURFACE EMISSION    SURFACE REFLECTED     TOTAL RADIANCE   INTEGRAL    TOTAL
  (CM-1) (MICRN)    (CM-1)   (MICRN)    (CM-1)   (MICRN)    (CM-1)   (MICRN)    (CM-1)   (MICRN)    (CM-1)   TRANS

   2102.    4.757  1.27E-07  5.60E-05  2.21E-07  9.78E-05  0.00E+00  0.00E+00  3.48E-07  1.54E-04  9.48E-03  0.47552
   2104.    4.753  1.14E-07  5.06E-05  2.36E-07  1.04E-04  0.00E+00  0.00E+00  3.50E-07  1.55E-04  9.48E-03  0.50947
   2106.    4.748  1.47E-07  6.51E-05  1.59E-07  7.06E-05  0.00E+00  0.00E+00  3.06E-07  1.36E-04  9.48E-03  0.34626
   2108.    4.744  1.42E-07  6.32E-05  1.64E-07  7.29E-05  0.00E+00  0.00E+00  3.06E-07  1.36E-04  9.48E-03  0.36003
   2110.    4.739  1.07E-07  4.74E-05  2.45E-07  1.09E-04  0.00E+00  0.00E+00  3.51E-07  1.56E-04  9.48E-03  0.53997
   2112.    4.735  1.28E-07  5.69E-05  2.30E-07  1.03E-04  0.00E+00  0.00E+00  3.58E-07  1.59E-04  9.48E-03  0.51055
   2114.    4.730  1.76E-07  7.86E-05  8.63E-08  3.86E-05  0.00E+00  0.00E+00  2.62E-07  1.17E-04  9.48E-03  0.19235
   2116.    4.726  1.69E-07  7.56E-05  8.47E-08  3.79E-05  0.00E+00  0.00E+00  2.54E-07  1.14E-04  9.48E-03  0.19158
   2118.    4.721  1.10E-07  4.95E-05  2.09E-07  9.39E-05  0.00E+00  0.00E+00  3.20E-07  1.43E-04  9.48E-03  0.47521
   2120.    4.717  1.08E-07  4.87E-05  2.00E-07  8.97E-05  0.00E+00  0.00E+00  3.08E-07  1.38E-04  9.48E-03  0.45544
   2122.    4.713  1.47E-07  6.62E-05  1.38E-07  6.20E-05  0.00E+00  0.00E+00  2.85E-07  1.28E-04  9.48E-03  0.31641
   2124.    4.708  1.51E-07  6.82E-05  1.27E-07  5.72E-05  0.00E+00  0.00E+00  2.78E-07  1.25E-04  9.48E-03  0.29379
   2126.    4.704  1.03E-07  4.67E-05  2.12E-07  9.58E-05  0.00E+00  0.00E+00  3.15E-07  1.42E-04  9.48E-03  0.49465
   2128.    4.699  8.34E-08  3.77E-05  2.39E-07  1.08E-04  0.00E+00  0.00E+00  3.23E-07  1.46E-04  9.48E-03  0.56154
   2130.    4.695  9.45E-08  4.29E-05  2.20E-07  9.98E-05  0.00E+00  0.00E+00  3.14E-07  1.43E-04  9.48E-03  0.51978
   2132.    4.690  8.03E-08  3.65E-05  2.85E-07  1.30E-04  0.00E+00  0.00E+00  3.66E-07  1.66E-04  9.49E-03  0.67911
   2134.    4.686  9.48E-08  4.32E-05  2.71E-07  1.23E-04  0.00E+00  0.00E+00  3.66E-07  1.67E-04  9.49E-03  0.64817
   2136.    4.682  1.65E-07  7.52E-05  1.14E-07  5.20E-05  0.00E+00  0.00E+00  2.79E-07  1.27E-04  9.49E-03  0.27392
   2138.    4.677  2.03E-07  9.27E-05  4.99E-08  2.28E-05  0.00E+00  0.00E+00  2.53E-07  1.16E-04  9.49E-03  0.12128
   2140.    4.673  1.70E-07  7.78E-05  1.42E-07  6.51E-05  0.00E+00  0.00E+00  3.12E-07  1.43E-04  9.49E-03  0.34820
   2142.    4.669  1.11E-07  5.10E-05  2.52E-07  1.16E-04  0.00E+00  0.00E+00  3.63E-07  1.67E-04  9.49E-03  0.62033
   2144.    4.664  1.23E-07  5.66E-05  2.14E-07  9.82E-05  0.00E+00  0.00E+00  3.37E-07  1.55E-04  9.49E-03  0.52883
   2146.    4.660  1.70E-07  7.84E-05  1.31E-07  6.03E-05  0.00E+00  0.00E+00  3.01E-07  1.39E-04  9.49E-03  0.32684
   2148.    4.655  1.47E-07  6.79E-05  1.78E-07  8.23E-05  0.00E+00  0.00E+00  3.26E-07  1.50E-04  9.49E-03  0.44898
   2150.    4.651  1.02E-07  4.73E-05  2.51E-07  1.16E-04  0.00E+00  0.00E+00  3.53E-07  1.63E-04  9.49E-03  0.63431
   2152.    4.647  1.17E-07  5.43E-05  2.16E-07  9.99E-05  0.00E+00  0.00E+00  3.33E-07  1.54E-04  9.49E-03  0.54947
   2154.    4.643  1.13E-07  5.25E-05  2.18E-07  1.01E-04  0.00E+00  0.00E+00  3.31E-07  1.54E-04  9.49E-03  0.55999
   2156.    4.638  1.07E-07  4.97E-05  2.30E-07  1.07E-04  0.00E+00  0.00E+00  3.37E-07  1.57E-04  9.49E-03  0.59495
   2158.    4.634  8.98E-08  4.18E-05  2.52E-07  1.17E-04  0.00E+00  0.00E+00  3.42E-07  1.59E-04  9.49E-03  0.65572
   2160.    4.630  1.08E-07  5.06E-05  2.20E-07  1.03E-04  0.00E+00  0.00E+00  3.28E-07  1.53E-04  9.49E-03  0.57487
   2162.    4.625  1.55E-07  7.23E-05  1.26E-07  5.91E-05  0.00E+00  0.00E+00  2.81E-07  1.31E-04  9.50E-03  0.33305
   2164.    4.621  1.08E-07  5.05E-05  2.06E-07  9.65E-05  0.00E+00  0.00E+00  3.14E-07  1.47E-04  9.50E-03  0.54779
   2166.    4.617  6.86E-08  3.22E-05  2.74E-07  1.28E-04  0.00E+00  0.00E+00  3.42E-07  1.61E-04  9.50E-03  0.73138
   2168.    4.613  5.60E-08  2.63E-05  2.88E-07  1.35E-04  0.00E+00  0.00E+00  3.44E-07  1.62E-04  9.50E-03  0.77562
   2170.    4.608  7.00E-08  3.29E-05  2.59E-07  1.22E-04  0.00E+00  0.00E+00  3.29E-07  1.55E-04  9.50E-03  0.70258
   2172.    4.604  8.89E-08  4.19E-05  2.30E-07  1.08E-04  0.00E+00  0.00E+00  3.19E-07  1.50E-04  9.50E-03  0.62724
   2174.    4.600  6.29E-08  2.97E-05  2.69E-07  1.27E-04  0.00E+00  0.00E+00  3.32E-07  1.57E-04  9.50E-03  0.73938
   2176.    4.596  5.21E-08  2.47E-05  2.81E-07  1.33E-04  0.00E+00  0.00E+00  3.33E-07  1.58E-04  9.50E-03  0.77848
   2178.    4.591  5.07E-08  2.40E-05  2.81E-07  1.33E-04  0.00E+00  0.00E+00  3.31E-07  1.57E-04  9.50E-03  0.78198
   2180.    4.587  7.63E-08  3.63E-05  2.36E-07  1.12E-04  0.00E+00  0.00E+00  3.12E-07  1.48E-04  9.50E-03  0.66108
   2182.    4.583  7.52E-08  3.58E-05  2.35E-07  1.12E-04  0.00E+00  0.00E+00  3.10E-07  1.48E-04  9.50E-03  0.66487
   2184.    4.579  7.50E-08  3.58E-05  2.36E-07  1.12E-04  0.00E+00  0.00E+00  3.11E-07  1.48E-04  9.50E-03  0.66958
   2186.    4.575  1.10E-07  5.28E-05  1.74E-07  8.33E-05  0.00E+00  0.00E+00  2.85E-07  1.36E-04  9.50E-03  0.49907
   2188.    4.570  9.71E-08  4.65E-05  1.93E-07  9.24E-05  0.00E+00  0.00E+00  2.90E-07  1.39E-04  9.50E-03  0.55678
   2190.    4.566  6.68E-08  3.20E-05  2.42E-07  1.16E-04  0.00E+00  0.00E+00  3.08E-07  1.48E-04  9.50E-03  0.70145
   2192.    4.562  6.81E-08  3.27E-05  2.36E-07  1.13E-04  0.00E+00  0.00E+00  3.04E-07  1.46E-04  9.50E-03  0.68883
   2194.    4.558  6.87E-08  3.31E-05  2.30E-07  1.11E-04  0.00E+00  0.00E+00  2.99E-07  1.44E-04  9.51E-03  0.67753
   2196.    4.554  4.66E-08  2.25E-05  2.60E-07  1.25E-04  0.00E+00  0.00E+00  3.07E-07  1.48E-04  9.51E-03  0.77100
   2198.    4.550  6.28E-08  3.03E-05  2.33E-07  1.13E-04  0.00E+00  0.00E+00  2.96E-07  1.43E-04  9.51E-03  0.69565
   2200.    4.545  7.86E-08  3.81E-05  2.04E-07  9.88E-05  0.00E+00  0.00E+00  2.83E-07  1.37E-04  9.51E-03  0.61355
0INTEGRATED ABSORPTION FROM    2 TO 2200 CM-1 =   1916.09 CM-1
 AVERAGE TRANSMITTANCE =0.1283

0INTEGRATED RADIANCE =  9.507E-03 WATTS CM-2 STER-1
 MINIMUM RADIANCE    =  1.194E-09 WATTS CM-2 STER-1 (CM-1)-1 AT        2.0 CM-1
 MAXIMUM RADIANCE    =  1.274E-05 WATTS CM-2 STER-1 (CM-1)-1 AT      560.0 CM-1
 BOUNDARY TEMPERATURE =     300.91 K
 BOUNDARY EMISSIVITY =       0.971
0 CARD 5 *****    0


