 *****  MODTRAN3 Version 1.3  12/1/95  *****
0 CARD 1  *****T   6    3    1    0    0    0    0    0    0    0    0    0   -1   0.000  -1.00
0 CARD 2  *****    2    0    0    0    0    0     0.000     0.000     0.000     0.000     0.000
 ***ERROR RELHUM      0.1085E+03  AT ALT         8.000
0 CARD 3  *****    70.000     0.000   180.000     0.000     0.000     0.000    0
0 CARD 4  *****       100      1500         2         2
0 PROGRAM WILL COMPUTE RADIANCE
0 ATMOSPHERIC MODEL
          TEMPERATURE =    6     1976 U S STANDARD
          WATER VAPOR =    6     1976 U S STANDARD
          OZONE       =    6     1976 U S STANDARD
                      M4 =     6 M5 =     6 M6 =     6 MDEF =     1
0 AEROSOL MODEL
          REGIME                  AEROSOL TYPE             PROFILE                  SEASON

          BOUNDARY LAYER (0-2 KM) RURAL                      5.0 KM VIS AT SEA LEVEL
          TROPOSPHERE  (2-10KM)   TROPOSPHERIC             TROPOSPHERIC             SPRING-SUMMER
          STRATOSPHERE (10-30KM)  BACKGROUND STRATO        BACKGROUND STRATO        SPRING-SUMMER
          UPPER ATMOS (30-100KM)  METEORIC DUST            NORMAL
0 SLANT PATH TO SPACE
          H1    =     70.000 KM
          HMIN  =      0.000 KM
          ANGLE =    180.000 DEG
0 FREQUENCY RANGE
             IV1 =       100 CM-1  (    100.00 MICROMETERS)
             IV2 =      1500 CM-1  (      6.67 MICROMETERS)
             IDV =         2 CM-1
           IFWHM =         2 CM-1
1
  ATMOSPHERIC PROFILES

   I     Z       P       T        N2       CNTMSLF MOL SCAT     N-1     O3 (UV)  O2 (UV)
        (KM)    (MB)    (K)            (MOL/CM2 KM)   (-)       (-)  (ATM CM/KM) (ATM CM/KM)

   1     0.00 1013.000  280.9  8.677E-01 1.648E+20 9.722E-01 2.793E-04 2.584E-03 3.669E+04
   2     1.00  898.800  274.4  7.159E-01 8.354E+19 8.830E-01 2.537E-04 2.586E-03 3.196E+04
   3     2.00  795.000  267.9  5.876E-01 3.990E+19 8.000E-01 2.299E-04 2.588E-03 2.780E+04
   4     3.00  701.200  261.4  4.801E-01 1.539E+19 7.232E-01 2.079E-04 2.398E-03 2.417E+04
   5     4.00  616.600  254.9  3.904E-01 5.757E+18 6.521E-01 1.875E-04 2.207E-03 2.099E+04
   6     5.00  540.500  248.4  3.159E-01 1.952E+18 5.866E-01 1.687E-04 2.209E-03 1.822E+04
   7     6.00  472.200  241.9  2.542E-01 6.894E+17 5.263E-01 1.513E-04 2.162E-03 1.579E+04
   8     7.00  411.100  235.4  2.035E-01 2.108E+17 4.708E-01 1.354E-04 2.357E-03 1.368E+04
   9     8.00  356.500  228.9  1.618E-01 6.891E+16 4.199E-01 1.207E-04 2.503E-03 1.183E+04
  10     9.00  308.000  222.4  1.280E-01 1.015E+16 3.734E-01 1.074E-04 3.421E-03 1.021E+04
  11    10.00  265.000  216.0  1.004E-01 1.556E+15 3.307E-01 9.512E-05 4.340E-03 8.804E+03
  12    11.00  227.000  216.8  7.314E-02 3.023E+14 2.823E-01 8.118E-05 6.062E-03 7.276E+03
  13    12.00  194.000  216.7  5.347E-02 6.151E+13 2.413E-01 6.941E-05 7.464E-03 6.050E+03
  14    13.00  165.800  216.7  3.906E-02 1.456E+13 2.063E-01 5.932E-05 7.927E-03 5.045E+03
  15    14.00  141.700  216.7  2.853E-02 3.173E+12 1.763E-01 5.070E-05 8.861E-03 4.220E+03
  16    15.00  121.100  216.7  2.084E-02 1.649E+12 1.507E-01 4.333E-05 9.793E-03 3.540E+03
  17    16.00  103.500  216.7  1.522E-02 7.519E+11 1.288E-01 3.703E-05 1.120E-02 2.977E+03
  18    17.00   88.500  216.7  1.113E-02 5.223E+11 1.101E-01 3.166E-05 1.306E-02 2.510E+03
  19    18.00   75.650  216.7  8.131E-03 3.767E+11 9.411E-02 2.707E-05 1.493E-02 2.119E+03
  20    19.00   64.670  216.7  5.942E-03 2.789E+11 8.045E-02 2.314E-05 1.632E-02 1.792E+03
  21    20.00   55.290  216.7  4.343E-03 2.092E+11 6.878E-02 1.978E-05 1.773E-02 1.519E+03
  22    21.00   47.290  217.6  3.151E-03 1.576E+11 5.859E-02 1.685E-05 1.773E-02 1.283E+03
  23    22.00   40.470  218.6  2.287E-03 1.196E+11 4.991E-02 1.435E-05 1.819E-02 1.086E+03
  24    23.00   34.670  219.6  1.663E-03 9.288E+10 4.256E-02 1.224E-05 1.773E-02 9.203E+02
  25    24.00   29.720  220.6  1.211E-03 7.090E+10 3.632E-02 1.044E-05 1.679E-02 7.814E+02
  26    25.00   25.490  221.6  8.828E-04 5.473E+10 3.101E-02 8.918E-06 1.586E-02 6.643E+02
  27    30.00   11.970  226.5  1.863E-04 1.317E+10 1.425E-02 4.097E-06 9.330E-03 3.011E+02
  28    35.00    5.746  236.5  3.938E-05 2.994E+09 6.550E-03 1.884E-06 5.130E-03 1.375E+02
  29    40.00    2.871  250.4  8.771E-06 7.012E+08 3.091E-03 8.889E-07 2.255E-03 6.472E+01
  30    45.00    1.491  264.2  2.125E-06 1.837E+08 1.521E-03 4.375E-07 7.982E-04 3.182E+01
  31    50.00    0.798  270.7  5.795E-07 5.009E+07 7.945E-04 2.285E-07 2.461E-04 1.660E+01
  32    70.00    0.052  219.6  3.770E-09 1.462E+05 6.408E-05 1.843E-08 1.921E-06 1.338E+00
  33   100.00    0.000  195.1  1.795E-13 9.093E-02 4.422E-07 1.272E-10 1.767E-08 7.070E-03
1
  ATMOSPHERIC PROFILES

   I     Z       P       T      CNTMFRN     HNO3    AEROSOL 1 AEROSOL 2 AEROSOL 3 AEROSOL 4 AER1*RH   CIRRUS         RH
        (KM)    (MB)    (K)   MOL/CM2 KM ATM CM/KM   (-)       (-)       (-)       (-)       (-)       (-)      (PERCNT)

   1     0.00 1013.000  280.9  2.113E+22 4.861E-06 7.700E-01 0.000E+00 0.000E+00 0.000E+00 2.496E+00 0.000E+00 7.441E+01
   2     1.00  898.800  274.4  1.369E+22 5.263E-06 7.700E-01 0.000E+00 0.000E+00 0.000E+00 2.243E+00 0.000E+00 8.159E+01
   3     2.00  795.000  267.9  8.583E+21 5.544E-06 6.210E-02 0.000E+00 0.000E+00 0.000E+00 1.491E-01 0.000E+00 8.896E+01
   4     3.00  701.200  261.4  4.826E+21 5.720E-06 0.000E+00 3.460E-02 0.000E+00 0.000E+00 0.000E+00 0.000E+00 8.951E+01
   5     4.00  616.600  254.9  2.664E+21 5.784E-06 0.000E+00 1.850E-02 0.000E+00 0.000E+00 0.000E+00 0.000E+00 9.126E+01
   6     5.00  540.500  248.4  1.397E+21 5.719E-06 0.000E+00 9.310E-03 0.000E+00 0.000E+00 0.000E+00 0.000E+00 9.139E+01
   7     6.00  472.200  241.9  7.449E+20 5.841E-06 0.000E+00 7.710E-03 0.000E+00 0.000E+00 0.000E+00 0.000E+00 9.663E+01
   8     7.00  411.100  235.4  3.686E+20 5.932E-06 0.000E+00 6.230E-03 0.000E+00 0.000E+00 0.000E+00 0.000E+00 9.867E+01
   9     8.00  356.500  228.9  1.880E+20 5.836E-06 0.000E+00 3.370E-03 0.000E+00 0.000E+00 0.000E+00 0.000E+00 1.000E+02
  10     9.00  308.000  222.4  6.418E+19 5.712E-06 0.000E+00 1.820E-03 0.000E+00 0.000E+00 0.000E+00 0.000E+00 8.379E+01
  11    10.00  265.000  216.0  2.226E+19 5.755E-06 0.000E+00 1.140E-03 0.000E+00 0.000E+00 0.000E+00 0.000E+00 6.852E+01
  12    11.00  227.000  216.8  8.374E+18 5.702E-06 0.000E+00 0.000E+00 7.990E-04 0.000E+00 0.000E+00 0.000E+00 2.743E+01
  13    12.00  194.000  216.7  3.230E+18 5.816E-06 0.000E+00 0.000E+00 6.410E-04 0.000E+00 0.000E+00 0.000E+00 1.252E+01
  14    13.00  165.800  216.7  1.343E+18 5.693E-06 0.000E+00 0.000E+00 5.170E-04 0.000E+00 0.000E+00 0.000E+00 6.092E+00
  15    14.00  141.700  216.7  5.358E+17 5.870E-06 0.000E+00 0.000E+00 4.420E-04 0.000E+00 0.000E+00 0.000E+00 2.844E+00
  16    15.00  121.100  216.7  3.301E+17 6.809E-06 0.000E+00 0.000E+00 3.950E-04 0.000E+00 0.000E+00 0.000E+00 2.050E+00
  17    16.00  103.500  216.7  1.905E+17 9.489E-06 0.000E+00 0.000E+00 3.820E-04 0.000E+00 0.000E+00 0.000E+00 1.384E+00
  18    17.00   88.500  216.7  1.358E+17 1.442E-05 0.000E+00 0.000E+00 4.250E-04 0.000E+00 0.000E+00 0.000E+00 1.154E+00
  19    18.00   75.650  216.7  9.855E+16 1.986E-05 0.000E+00 0.000E+00 5.200E-04 0.000E+00 0.000E+00 0.000E+00 9.798E-01
  20    19.00   64.670  216.7  7.249E+16 2.550E-05 0.000E+00 0.000E+00 5.810E-04 0.000E+00 0.000E+00 0.000E+00 8.431E-01
  21    20.00   55.290  216.7  5.368E+16 2.889E-05 0.000E+00 0.000E+00 5.890E-04 0.000E+00 0.000E+00 0.000E+00 7.302E-01
  22    21.00   47.290  217.6  3.969E+16 2.894E-05 0.000E+00 0.000E+00 5.020E-04 0.000E+00 0.000E+00 0.000E+00 5.702E-01
  23    22.00   40.470  218.6  2.946E+16 2.725E-05 0.000E+00 0.000E+00 4.200E-04 0.000E+00 0.000E+00 0.000E+00 4.422E-01
  24    23.00   34.670  219.6  2.213E+16 2.443E-05 0.000E+00 0.000E+00 3.000E-04 0.000E+00 0.000E+00 0.000E+00 3.472E-01
  25    24.00   29.720  220.6  1.650E+16 2.121E-05 0.000E+00 0.000E+00 1.980E-04 0.000E+00 0.000E+00 0.000E+00 2.707E-01
  26    25.00   25.490  221.6  1.238E+16 1.740E-05 0.000E+00 0.000E+00 1.310E-04 0.000E+00 0.000E+00 0.000E+00 2.125E-01
  27    30.00   11.970  226.5  2.790E+15 5.328E-06 0.000E+00 0.000E+00 3.320E-05 0.000E+00 0.000E+00 0.000E+00 6.101E-02
  28    35.00    5.746  236.5  6.115E+14 1.074E-06 0.000E+00 0.000E+00 0.000E+00 1.640E-05 0.000E+00 0.000E+00 1.056E-02
  29    40.00    2.871  250.4  1.397E+14 1.647E-07 0.000E+00 0.000E+00 0.000E+00 7.990E-06 0.000E+00 0.000E+00 1.460E-03
  30    45.00    1.491  264.2  3.518E+13 1.841E-08 0.000E+00 0.000E+00 0.000E+00 4.010E-06 0.000E+00 0.000E+00 2.502E-04
  31    50.00    0.798  270.7  9.595E+12 4.409E-09 0.000E+00 0.000E+00 0.000E+00 2.100E-06 0.000E+00 0.000E+00 8.159E-05
  32    70.00    0.052  219.6  4.181E+10 2.095E-10 0.000E+00 0.000E+00 0.000E+00 1.600E-07 0.000E+00 0.000E+00 4.357E-04
  33   100.00    0.000  195.1  2.275E+05 1.207E-12 0.000E+00 0.000E+00 0.000E+00 9.310E-10 0.000E+00 0.000E+00 8.646E-06
1
  ATMOSPHERIC PROFILES

   I      Z       P       T      H2O      O3       CO2      CO       CH4      N2O      O2       NH3      NO       NO2      SO2
         (KM)    (MB)    (K)  (                                 ATM CM/KM                                                     )
   1     0.00 1013.000  280.9  7.52E+02 2.58E-03 0.00E+00 1.46E-02 1.65E-01 3.11E-02 2.03E+04 4.86E-05 2.91E-05 2.23E-06 2.91E-05
   2     1.00  898.800  274.4  5.36E+02 2.59E-03 0.00E+00 1.28E-02 1.50E-01 2.82E-02 1.84E+04 4.41E-05 2.65E-05 2.03E-06 2.42E-05
   3     2.00  795.000  267.9  3.70E+02 2.59E-03 0.00E+00 1.12E-02 1.36E-01 2.56E-02 1.67E+04 3.70E-05 2.40E-05 1.84E-06 1.89E-05
   4     3.00  701.200  261.4  2.30E+02 2.40E-03 0.00E+00 9.75E-03 1.23E-01 2.31E-02 1.51E+04 2.75E-05 2.17E-05 1.66E-06 1.37E-05
   5     4.00  616.600  254.9  1.41E+02 2.21E-03 0.00E+00 8.55E-03 1.11E-01 2.09E-02 1.36E+04 1.88E-05 1.96E-05 1.50E-06 9.51E-06
   6     5.00  540.500  248.4  8.19E+01 2.21E-03 0.00E+00 7.64E-03 9.97E-02 1.88E-02 1.23E+04 1.20E-05 1.76E-05 1.35E-06 6.92E-06
   7     6.00  472.200  241.9  4.87E+01 2.16E-03 0.00E+00 6.77E-03 8.94E-02 1.68E-02 1.10E+04 7.68E-06 1.58E-05 1.21E-06 5.11E-06
   8     7.00  411.100  235.4  2.69E+01 2.36E-03 0.00E+00 5.87E-03 7.99E-02 1.51E-02 9.83E+03 4.65E-06 1.41E-05 1.08E-06 3.91E-06
   9     8.00  356.500  228.9  1.54E+01 2.50E-03 0.00E+00 4.97E-03 7.12E-02 1.34E-02 8.77E+03 2.72E-06 1.26E-05 9.65E-07 3.03E-06
  10     9.00  308.000  222.4  5.91E+00 3.42E-03 0.00E+00 4.08E-03 6.32E-02 1.19E-02 7.80E+03 1.41E-06 1.12E-05 8.66E-07 2.45E-06
  11    10.00  265.000  216.0  2.31E+00 4.34E-03 0.00E+00 3.29E-03 5.57E-02 1.05E-02 6.91E+03 6.71E-07 9.92E-06 7.87E-07 2.01E-06
  12    11.00  227.000  216.8  1.02E+00 6.06E-03 0.00E+00 2.53E-03 4.72E-02 8.86E-03 5.90E+03 3.07E-07 8.46E-06 7.39E-07 1.63E-06
  13    12.00  194.000  216.7  4.60E-01 7.46E-03 0.00E+00 1.88E-03 4.01E-02 7.46E-03 5.04E+03 1.52E-07 7.24E-06 7.60E-07 1.35E-06
  14    13.00  165.800  216.7  2.24E-01 7.93E-03 0.00E+00 1.31E-03 3.39E-02 6.28E-03 4.31E+03 6.43E-08 6.16E-06 9.17E-07 1.15E-06
  15    14.00  141.700  216.7  1.04E-01 8.86E-03 0.00E+00 8.85E-04 2.86E-02 5.28E-03 3.68E+03 1.96E-08 5.20E-06 1.32E-06 9.94E-07
  16    15.00  121.100  216.7  7.53E-02 9.79E-03 0.00E+00 5.93E-04 2.42E-02 4.43E-03 3.15E+03 6.73E-09 4.26E-06 2.57E-06 8.66E-07
  17    16.00  103.500  216.7  5.08E-02 1.12E-02 0.00E+00 3.95E-04 2.04E-02 3.70E-03 2.69E+03 2.71E-09 3.45E-06 4.10E-06 7.40E-07
  18    17.00   88.500  216.7  4.24E-02 1.31E-02 0.00E+00 2.74E-04 1.71E-02 3.06E-03 2.30E+03 1.21E-09 2.77E-06 5.71E-06 5.91E-07
  19    18.00   75.650  216.7  3.60E-02 1.49E-02 0.00E+00 1.85E-04 1.43E-02 2.51E-03 1.97E+03 6.30E-10 2.26E-06 7.25E-06 4.50E-07
  20    19.00   64.670  216.7  3.09E-02 1.63E-02 0.00E+00 1.25E-04 1.19E-02 2.03E-03 1.68E+03 3.19E-10 1.96E-06 8.52E-06 3.19E-07
  21    20.00   55.290  216.7  2.68E-02 1.77E-02 0.00E+00 9.15E-05 9.79E-03 1.63E-03 1.44E+03 1.66E-10 1.75E-06 9.55E-06 2.19E-07
  22    21.00   47.290  217.6  2.33E-02 1.77E-02 0.00E+00 7.21E-05 7.93E-03 1.28E-03 1.22E+03 1.12E-10 1.62E-06 1.03E-05 1.56E-07
  23    22.00   40.470  218.6  2.03E-02 1.82E-02 0.00E+00 6.14E-05 6.34E-03 1.02E-03 1.04E+03 8.58E-11 1.53E-06 1.08E-05 1.14E-07
  24    23.00   34.670  219.6  1.79E-02 1.77E-02 0.00E+00 5.56E-05 5.07E-03 8.37E-04 8.89E+02 6.76E-11 1.53E-06 1.10E-05 8.80E-08
  25    24.00   29.720  220.6  1.56E-02 1.68E-02 0.00E+00 5.08E-05 4.06E-03 6.81E-04 7.59E+02 5.23E-11 1.64E-06 1.11E-05 6.90E-08
  26    25.00   25.490  221.6  1.37E-02 1.59E-02 0.00E+00 4.64E-05 3.27E-03 5.44E-04 6.48E+02 3.81E-11 2.12E-06 1.16E-05 5.42E-08
  27    30.00   11.970  226.5  6.73E-03 9.33E-03 0.00E+00 2.43E-05 1.30E-03 2.02E-04 2.98E+02 9.04E-12 3.49E-06 8.77E-06 1.91E-08
  28    35.00    5.746  236.5  3.21E-03 5.13E-03 0.00E+00 1.31E-05 4.88E-04 6.07E-05 1.37E+02 1.19E-12 4.67E-06 4.76E-06 7.59E-09
  29    40.00    2.871  250.4  1.55E-03 2.25E-03 0.00E+00 7.71E-06 1.74E-04 1.39E-05 6.46E+01 9.08E-14 3.46E-06 1.24E-06 4.20E-09
  30    45.00    1.491  264.2  7.94E-04 7.98E-04 0.00E+00 4.93E-06 5.52E-05 2.42E-06 3.18E+01 4.53E-15 1.78E-06 1.75E-07 3.19E-09
  31    50.00    0.798  270.7  4.15E-04 2.46E-04 0.00E+00 3.65E-06 1.67E-05 3.77E-07 1.66E+01 5.66E-16 8.18E-07 3.52E-08 2.83E-09
  32    70.00    0.052  219.6  2.24E-05 1.92E-06 0.00E+00 1.96E-06 9.61E-07 7.36E-09 1.34E+00 1.65E-17 7.36E-08 1.48E-09 2.77E-10
  33   100.00    0.000  195.1  1.77E-08 1.77E-08 0.00E+00 7.48E-07 5.30E-09 1.47E-11 7.07E-03 6.54E-20 9.19E-08 7.51E-12 1.58E-14
1
  ATMOSPHERIC PROFILES

   I      Z       P       T     CFC-11   CFC-12   CFC-13   CFC-14   CFC-22   CFC-113  CFC-114  CFC-115  CLONO2    HNO4    CHCL2F
                                 CCL4     N2O5
         (KM)    (MB)    (K)  (                                 ATM CM/KM                                                     )
   1     0.00 1013.000  280.9  1.36E-05 2.33E-05 9.72E-14 9.72E-14 5.83E-06 1.85E-06 1.17E-06 9.72E-14 5.59E-07 4.22E-08 9.72E-14
                               1.26E-05 2.35E-11
   2     1.00  898.800  274.4  1.24E-05 2.12E-05 8.82E-14 8.82E-14 5.29E-06 1.68E-06 1.06E-06 8.82E-14 4.53E-07 1.88E-07 8.82E-14
                               1.15E-05 8.42E-11
   3     2.00  795.000  267.9  1.12E-05 1.92E-05 7.99E-14 7.99E-14 4.79E-06 1.52E-06 9.59E-07 7.99E-14 3.60E-07 3.07E-07 7.99E-14
                               1.04E-05 1.33E-10
   4     3.00  701.200  261.4  1.01E-05 1.73E-05 7.23E-14 7.23E-14 4.33E-06 1.37E-06 8.67E-07 7.23E-14 2.81E-07 4.00E-07 7.23E-14
                               9.39E-06 1.72E-10
   5     4.00  616.600  254.9  9.12E-06 1.56E-05 6.52E-14 6.52E-14 3.90E-06 1.24E-06 7.82E-07 6.52E-14 2.12E-07 4.72E-07 6.52E-14
                               8.47E-06 2.01E-10
   6     5.00  540.500  248.4  8.21E-06 1.41E-05 5.86E-14 5.86E-14 3.50E-06 1.11E-06 7.03E-07 5.86E-14 1.62E-07 1.06E-06 5.86E-14
                               7.61E-06 2.12E-10
   7     6.00  472.200  241.9  7.36E-06 1.26E-05 5.26E-14 5.26E-14 3.14E-06 9.99E-07 6.31E-07 5.26E-14 1.18E-07 1.53E-06 5.26E-14
                               6.81E-06 2.17E-10
   8     7.00  411.100  235.4  6.59E-06 1.13E-05 4.70E-14 4.70E-14 2.81E-06 8.94E-07 5.65E-07 4.70E-14 8.21E-08 1.88E-06 4.70E-14
                               6.08E-06 2.18E-10
   9     8.00  356.500  228.9  5.87E-06 1.01E-05 4.20E-14 4.20E-14 2.50E-06 7.97E-07 5.04E-07 4.20E-14 5.20E-08 2.14E-06 4.20E-14
                               5.41E-06 2.17E-10
  10     9.00  308.000  222.4  5.22E-06 8.95E-06 3.73E-14 3.73E-14 2.23E-06 7.08E-07 4.48E-07 3.73E-14 4.51E-08 1.83E-06 3.73E-14
                               4.81E-06 2.15E-10
  11    10.00  265.000  216.0  4.61E-06 7.92E-06 3.31E-14 3.31E-14 1.97E-06 6.26E-07 3.97E-07 3.31E-14 3.88E-08 1.56E-06 3.31E-14
                               4.26E-06 2.10E-10
  12    11.00  227.000  216.8  3.93E-06 6.75E-06 2.82E-14 2.82E-14 1.68E-06 5.34E-07 3.38E-07 2.82E-14 3.22E-08 1.28E-06 2.82E-14
                               3.64E-06 1.97E-10
  13    12.00  194.000  216.7  3.35E-06 5.76E-06 2.41E-14 2.41E-14 1.44E-06 4.56E-07 2.89E-07 2.41E-14 2.68E-08 1.05E-06 2.41E-14
                               3.11E-06 1.83E-10
  14    13.00  165.800  216.7  2.78E-06 4.85E-06 2.06E-14 2.06E-14 1.21E-06 3.82E-07 2.45E-07 2.06E-14 1.65E-07 1.17E-06 2.06E-14
                               2.58E-06 9.08E-09
  15    14.00  141.700  216.7  2.31E-06 4.09E-06 1.76E-14 1.76E-14 1.03E-06 3.21E-07 2.07E-07 1.76E-14 2.63E-07 1.22E-06 1.76E-14
                               2.13E-06 1.54E-08
  16    15.00  121.100  216.7  1.91E-06 3.44E-06 1.51E-14 1.51E-14 8.70E-07 2.69E-07 1.75E-07 1.51E-14 3.28E-07 1.24E-06 1.51E-14
                               1.76E-06 1.97E-08
  17    16.00  103.500  216.7  1.58E-06 2.90E-06 1.29E-14 1.29E-14 7.36E-07 2.25E-07 1.48E-07 1.29E-14 3.69E-07 1.22E-06 1.29E-14
                               1.45E-06 2.24E-08
  18    17.00   88.500  216.7  1.24E-06 2.36E-06 1.10E-14 1.10E-14 6.12E-07 1.82E-07 1.23E-07 1.10E-14 1.12E-06 1.57E-06 1.10E-14
                               1.12E-06 9.66E-08
  19    18.00   75.650  216.7  9.56E-07 1.92E-06 9.40E-15 9.40E-15 5.08E-07 1.46E-07 1.02E-07 9.40E-15 1.64E-06 1.79E-06 9.40E-15
                               8.52E-07 1.49E-07
  20    19.00   64.670  216.7  7.31E-07 1.56E-06 8.04E-15 8.04E-15 4.22E-07 1.17E-07 8.47E-08 8.04E-15 1.99E-06 1.91E-06 8.04E-15
                               6.38E-07 1.84E-07
  21    20.00   55.290  216.7  5.51E-07 1.26E-06 6.87E-15 6.87E-15 3.50E-07 9.35E-08 7.01E-08 6.87E-15 2.20E-06 1.96E-06 6.87E-15
                               4.69E-07 2.06E-07
  22    21.00   47.290  217.6  4.02E-07 1.00E-06 5.85E-15 5.85E-15 2.86E-07 7.25E-08 5.71E-08 5.85E-15 2.69E-06 2.06E-06 5.85E-15
                               3.35E-07 2.43E-07
  23    22.00   40.470  218.6  2.85E-07 7.88E-07 4.99E-15 4.99E-15 2.34E-07 5.57E-08 4.64E-08 4.99E-15 2.99E-06 2.09E-06 4.99E-15
                               2.30E-07 2.64E-07
  24    23.00   34.670  219.6  1.94E-07 6.17E-07 4.25E-15 4.25E-15 1.91E-07 4.22E-08 3.77E-08 4.25E-15 3.15E-06 2.06E-06 4.25E-15
                               1.49E-07 2.75E-07
  25    24.00   29.720  220.6  1.23E-07 4.79E-07 3.63E-15 3.63E-15 1.56E-07 3.16E-08 3.06E-08 3.63E-15 3.19E-06 2.00E-06 3.63E-15
                               8.71E-08 2.76E-07
  26    25.00   25.490  221.6  8.45E-08 3.68E-07 3.10E-15 3.10E-15 1.27E-07 2.36E-08 2.46E-08 3.10E-15 3.01E-06 1.80E-06 3.10E-15
                               5.84E-08 2.39E-07
  27    30.00   11.970  226.5  5.56E-09 8.38E-08 1.42E-15 1.42E-15 4.31E-08 4.15E-09 8.02E-09 1.42E-15 1.62E-06 7.26E-07 1.42E-15
                               2.50E-09 7.86E-08
  28    35.00    5.746  236.5  1.30E-10 1.40E-08 6.55E-16 6.55E-16 1.35E-08 4.69E-10 2.39E-09 6.55E-16 3.43E-07 9.61E-08 6.55E-16
                               2.59E-11 7.08E-09
  29    40.00    2.871  250.4  5.71E-13 1.88E-09 3.09E-16 3.09E-16 4.29E-09 3.80E-11 7.17E-10 3.09E-16 1.32E-08 3.08E-09 3.09E-16
                               1.22E-14 6.58E-11
  30    45.00    1.491  264.2  1.40E-14 3.24E-10 1.52E-16 1.52E-16 1.58E-09 4.89E-12 2.46E-10 1.52E-16 2.55E-10 1.33E-10 1.52E-16
                               8.47E-17 5.99E-13
  31    50.00    0.798  270.7  4.74E-16 6.76E-11 7.94E-17 7.94E-17 6.97E-10 7.86E-13 9.92E-11 7.94E-17 3.71E-12 6.06E-12 7.94E-17
                               8.68E-19 4.99E-15
  32    70.00    0.052  219.6  3.26E-21 2.50E-13 6.40E-18 6.40E-18 4.60E-11 1.13E-15 3.75E-12 6.40E-18 4.63E-19 2.06E-16 6.40E-18
                               6.32E-26 5.25E-23
  33   100.00    0.000  195.1  1.37E-30 1.10E-18 4.42E-20 4.42E-20 7.91E-14 5.79E-22 9.41E-16 4.42E-20 3.57E-35 1.47E-31 4.42E-20
                               2.25E-38 0.00E+00


 CASE 3A: GIVEN H1,H2=SPACE,ANGLE



 TANGENT PATH WITH H1 =     70.000 AND ANGLE =    180.000 INTERSECTS THE EARTH

          H2 HAS BEEN RESET TO 0.0 AND LEN TO 0



 SLANT PATH PARAMETERS IN STANDARD FORM

          H1      =     70.000 KM
          H2      =      0.000 KM
          ANGLE   =    180.000 DEG
          PHI     =      0.000 DEG
          HMIN    =      0.000 KM
          LEN     =          0
1CALCULATION OF THE REFRACTED PATH THROUGH THE ATMOSPHERE


  I       ALTITUDE        THETA  DRANGE    RANGE    DBETA     BETA     PHI     DBEND  BENDING    PBAR    TBAR   RHOBAR
      FROM       TO
      (KM)      (KM)      (DEG)    (KM)     (KM)    (DEG)    (DEG)    (DEG)    (DEG)    (DEG)    (MB)    (K)  (GM CM-3)

          H2 TO H1

  1    0.000    1.000    0.000    1.000    1.000    0.000    0.000  180.000    0.000    0.000  955.677  277.68 1.20E-03
  2    1.000    2.000    0.000    1.000    2.000    0.000    0.000  180.000    0.000    0.000  846.693  271.18 1.09E-03
  3    2.000    3.000    0.000    1.000    3.000    0.000    0.000  180.000    0.000    0.000  747.908  264.68 9.83E-04
  4    3.000    4.000    0.000    1.000    4.000    0.000    0.000  180.000    0.000    0.000  658.723  258.18 8.88E-04
  5    4.000    5.000    0.000    1.000    5.000    0.000    0.000  180.000    0.000    0.000  578.386  251.68 8.00E-04
  6    5.000    6.000    0.000    1.000    6.000    0.000    0.000  180.000    0.000    0.000  506.199  245.18 7.18E-04
  7    6.000    7.000    0.000    1.000    7.000    0.000    0.000  180.000    0.000    0.000  441.511  238.69 6.44E-04
  8    7.000    8.000    0.000    1.000    8.000    0.000    0.000  180.000    0.000    0.000  383.673  232.19 5.75E-04
  9    8.000    9.000    0.000    1.000    9.000    0.000    0.000  180.000    0.000    0.000  332.134  225.69 5.12E-04
 10    9.000   10.000    0.000    1.000   10.000    0.000    0.000  180.000    0.000    0.000  286.395  219.24 4.54E-04
 11   10.000   11.000    0.000    1.000   11.000    0.000    0.000  180.000    0.000    0.000  246.012  216.38 3.95E-04
 12   11.000   12.000    0.000    1.000   12.000    0.000    0.000  180.000    0.000    0.000  210.499  216.75 3.38E-04
 13   12.000   13.000    0.000    1.000   13.000    0.000    0.000  180.000    0.000    0.000  179.900  216.70 2.89E-04
 14   13.000   14.000    0.000    1.000   14.000    0.000    0.000  180.000    0.000    0.000  153.750  216.70 2.47E-04
 15   14.000   15.000    0.000    1.000   15.000    0.000    0.000  180.000    0.000    0.000  131.400  216.70 2.11E-04
 16   15.000   16.000    0.000    1.000   16.000    0.000    0.000  180.000    0.000    0.000  112.300  216.70 1.80E-04
 17   16.000   17.000    0.000    1.000   17.000    0.000    0.000  180.000    0.000    0.000   96.000  216.70 1.54E-04
 18   17.000   18.000    0.000    1.000   18.000    0.000    0.000  180.000    0.000    0.000   82.075  216.70 1.32E-04
 19   18.000   19.000    0.000    1.000   19.000    0.000    0.000  180.000    0.000    0.000   70.160  216.70 1.13E-04
 20   19.000   20.000    0.000    1.000   20.000    0.000    0.000  180.000    0.000    0.000   59.980  216.70 9.62E-05
 21   20.000   21.000    0.000    1.000   21.000    0.000    0.000  180.000    0.000    0.000   51.293  217.14 8.21E-05
 22   21.000   22.000    0.000    1.000   22.000    0.000    0.000  180.000    0.000    0.000   43.883  218.09 7.00E-05
 23   22.000   23.000    0.000    1.000   23.000    0.000    0.000  180.000    0.000    0.000   37.572  219.09 5.96E-05
 24   23.000   24.000    0.000    1.000   24.000    0.000    0.000  180.000    0.000    0.000   32.197  220.09 5.09E-05
 25   24.000   25.000    0.000    1.000   25.000    0.000    0.000  180.000    0.000    0.000   27.607  221.09 4.34E-05
 26   25.000   30.000    0.000    5.000   30.000    0.000    0.000  180.000    0.000    0.000   18.754  223.73 2.79E-05
 27   30.000   35.000    0.000    5.000   35.000    0.000    0.000  180.000    0.000    0.000    8.880  230.82 1.28E-05
 28   35.000   40.000    0.000    5.000   40.000    0.000    0.000  180.000    0.000    0.000    4.322  242.52 5.95E-06
 29   40.000   45.000    0.000    5.000   45.000    0.000    0.000  180.000    0.000    0.000    2.187  256.43 2.86E-06
 30   45.000   50.000    0.000    5.000   50.000    0.000    0.000  180.000    0.000    0.000    1.146  267.09 1.45E-06
 31   50.000   70.000    0.000   20.000   70.000    0.000    0.000  180.000    0.000    0.000    0.414  254.07 3.75E-07




1CUMULATIVE ABSORBER AMOUNTS FOR THE PATH FROM H1 TO Z

  J     Z        TBAR     HNO3        O3 UV      CNTMSLF1   CNTMSLF2    CNTMFRN      O2
       (KM)       (K)   (ATM CM)    (ATM CM)    (MOL CM-2)  (MOL CM-2)  (MOL CM-2)(MOL CM-2)

  1   50.000   254.07   2.757E-08   1.006E-03   1.712E+08   1.993E+08   3.515E+13   1.212E+02
  2   45.000   267.09   7.655E-08   3.353E-03   6.852E+08   6.122E+08   1.336E+14   2.382E+02
  3   40.000   256.43   4.104E-07   1.037E-02   2.617E+09   2.735E+09   5.125E+14   4.699E+02
  4   35.000   242.52   2.836E-06   2.785E-02   1.051E+10   1.447E+10   2.110E+15   9.529E+02
  5   30.000   230.82   1.612E-05   6.296E-02   4.487E+10   7.666E+10   9.286E+15   1.997E+03
  6   25.000   223.73   6.711E-05   1.245E-01   1.908E+11   3.695E+11   4.146E+16   4.291E+03
  7   24.000   221.09   8.635E-05   1.408E-01   2.532E+11   4.995E+11   5.580E+16   5.013E+03
  8   23.000   220.09   1.091E-04   1.581E-01   3.346E+11   6.712E+11   7.498E+16   5.862E+03
  9   22.000   219.09   1.349E-04   1.760E-01   4.403E+11   8.970E+11   1.006E+17   6.862E+03
 10   21.000   218.09   1.630E-04   1.940E-01   5.781E+11   1.195E+12   1.349E+17   8.044E+03
 11   20.000   217.14   1.920E-04   2.117E-01   7.603E+11   1.594E+12   1.813E+17   9.442E+03
 12   19.000   216.70   2.191E-04   2.287E-01   1.003E+12   2.128E+12   2.439E+17   1.109E+04
 13   18.000   216.70   2.418E-04   2.444E-01   1.328E+12   2.845E+12   3.287E+17   1.304E+04
 14   17.000   216.70   2.590E-04   2.584E-01   1.773E+12   3.826E+12   4.449E+17   1.535E+04
 15   16.000   216.70   2.709E-04   2.705E-01   2.404E+12   5.214E+12   6.065E+17   1.809E+04
 16   15.000   216.70   2.791E-04   2.810E-01   3.546E+12   7.731E+12   8.604E+17   2.134E+04
 17   14.000   216.70   2.854E-04   2.903E-01   5.875E+12   1.286E+13   1.285E+18   2.521E+04
 18   13.000   216.70   2.912E-04   2.987E-01   1.335E+13   2.932E+13   2.163E+18   2.983E+04
 19   12.000   216.70   2.969E-04   3.064E-01   4.593E+13   1.011E+14   4.313E+18   3.536E+04
 20   11.000   216.75   3.027E-04   3.132E-01   1.972E+14   4.340E+14   9.713E+18   4.201E+04
 21   10.000   216.38   3.084E-04   3.184E-01   9.625E+14   2.127E+15   2.392E+19   5.002E+04
 22    9.000   219.24   3.142E-04   3.222E-01   5.547E+15   1.190E+16   6.351E+19   5.952E+04
 23    8.000   225.69   3.199E-04   3.252E-01   3.623E+16   7.183E+16   1.787E+20   7.052E+04
 24    7.000   232.19   3.258E-04   3.276E-01   1.631E+17   2.968E+17   4.470E+20   8.324E+04
 25    6.000   238.69   3.317E-04   3.299E-01   5.671E+17   9.399E+17   9.819E+20   9.795E+04
 26    5.000   245.18   3.375E-04   3.321E-01   1.780E+18   2.652E+18   2.019E+21   1.149E+05
 27    4.000   251.68   3.432E-04   3.343E-01   5.298E+18   6.983E+18   3.981E+21   1.345E+05
 28    3.000   258.18   3.490E-04   3.366E-01   1.510E+19   1.728E+19   7.620E+21   1.570E+05
 29    2.000   264.68   3.546E-04   3.391E-01   4.083E+19   3.966E+19   1.414E+22   1.830E+05
 30    1.000   271.18   3.600E-04   3.417E-01   9.988E+19   8.037E+19   2.508E+22   2.128E+05
 31    0.000   277.68   3.651E-04   3.442E-01   2.195E+20   1.412E+20   4.222E+22   2.471E+05



1 J     Z       N2 CONT    MOL SCAT       AER 1       AER 2       AER 3       AER 4       CIRRUS
       (KM)

  1   50.000   2.287E-06   5.803E-03   0.000E+00   0.000E+00   0.000E+00   1.507E-05   0.000E+00
  2   45.000   8.234E-06   1.140E-02   0.000E+00   0.000E+00   0.000E+00   2.983E-05   0.000E+00
  3   40.000   3.167E-05   2.247E-02   0.000E+00   0.000E+00   0.000E+00   5.870E-05   0.000E+00
  4   35.000   1.336E-04   4.550E-02   0.000E+00   0.000E+00   0.000E+00   1.172E-04   0.000E+00
  5   30.000   6.063E-04   9.502E-02   0.000E+00   0.000E+00   8.300E-05   1.582E-04   0.000E+00
  6   25.000   2.845E-03   2.028E-01   0.000E+00   0.000E+00   4.392E-04   1.582E-04   0.000E+00
  7   24.000   3.883E-03   2.364E-01   0.000E+00   0.000E+00   6.014E-04   1.582E-04   0.000E+00
  8   23.000   5.308E-03   2.757E-01   0.000E+00   0.000E+00   8.469E-04   1.582E-04   0.000E+00
  9   22.000   7.266E-03   3.219E-01   0.000E+00   0.000E+00   1.204E-03   1.582E-04   0.000E+00
 10   21.000   9.962E-03   3.760E-01   0.000E+00   0.000E+00   1.663E-03   1.582E-04   0.000E+00
 11   20.000   1.368E-02   4.395E-01   0.000E+00   0.000E+00   2.208E-03   1.582E-04   0.000E+00
 12   19.000   1.878E-02   5.140E-01   0.000E+00   0.000E+00   2.793E-03   1.582E-04   0.000E+00
 13   18.000   2.576E-02   6.011E-01   0.000E+00   0.000E+00   3.343E-03   1.582E-04   0.000E+00
 14   17.000   3.531E-02   7.030E-01   0.000E+00   0.000E+00   3.816E-03   1.582E-04   0.000E+00
 15   16.000   4.838E-02   8.222E-01   0.000E+00   0.000E+00   4.219E-03   1.582E-04   0.000E+00
 16   15.000   6.626E-02   9.616E-01   0.000E+00   0.000E+00   4.608E-03   1.582E-04   0.000E+00
 17   14.000   9.074E-02   1.125E+00   0.000E+00   0.000E+00   5.026E-03   1.582E-04   0.000E+00
 18   13.000   1.243E-01   1.316E+00   0.000E+00   0.000E+00   5.504E-03   1.582E-04   0.000E+00
 19   12.000   1.701E-01   1.539E+00   0.000E+00   0.000E+00   6.081E-03   1.582E-04   0.000E+00
 20   11.000   2.329E-01   1.800E+00   0.000E+00   0.000E+00   6.798E-03   1.582E-04   0.000E+00
 21   10.000   3.190E-01   2.106E+00   0.000E+00   5.700E-04   7.198E-03   1.582E-04   0.000E+00
 22    9.000   4.326E-01   2.458E+00   0.000E+00   2.024E-03   7.198E-03   1.582E-04   0.000E+00
 23    8.000   5.769E-01   2.854E+00   0.000E+00   4.540E-03   7.198E-03   1.582E-04   0.000E+00
 24    7.000   7.588E-01   3.299E+00   0.000E+00   9.194E-03   7.198E-03   1.582E-04   0.000E+00
 25    6.000   9.867E-01   3.797E+00   0.000E+00   1.614E-02   7.198E-03   1.582E-04   0.000E+00
 26    5.000   1.271E+00   4.353E+00   0.000E+00   2.462E-02   7.198E-03   1.582E-04   0.000E+00
 27    4.000   1.623E+00   4.971E+00   0.000E+00   3.801E-02   7.198E-03   1.582E-04   0.000E+00
 28    3.000   2.056E+00   5.658E+00   0.000E+00   6.372E-02   7.198E-03   1.582E-04   0.000E+00
 29    2.000   2.588E+00   6.419E+00   3.105E-02   8.102E-02   7.198E-03   1.582E-04   0.000E+00
 30    1.000   3.238E+00   7.260E+00   3.122E-01   8.102E-02   7.198E-03   1.582E-04   0.000E+00
 31    0.000   4.027E+00   8.187E+00   1.082E+00   8.102E-02   7.198E-03   1.582E-04   0.000E+00



1  J    Z       H2O       O3        CO2       CO        CH4       N2O       O2        NH3       NO        NO2       SO2
      (KM)    (                                                      ATM CM                                             )

   1   50.00  2.69E-03  1.01E-03  0.00E+00  5.43E-05  1.10E-04  1.88E-06  1.21E+02  3.11E-15  6.18E-06  2.13E-07  2.19E-08
   2   45.00  5.61E-03  3.35E-03  0.00E+00  7.56E-05  2.71E-04  7.37E-06  2.38E+02  1.26E-14  1.24E-05  6.48E-07  3.70E-08
   3   40.00  1.13E-02  1.04E-02  0.00E+00  1.07E-04  7.89E-04  4.03E-05  4.69E+02  1.57E-13  2.50E-05  3.37E-06  5.53E-08
   4   35.00  2.27E-02  2.79E-02  0.00E+00  1.58E-04  2.31E-03  1.99E-04  9.50E+02  2.29E-12  4.52E-05  1.65E-05  8.40E-08
   5   30.00  4.64E-02  6.30E-02  0.00E+00  2.49E-04  6.46E-03  7.86E-04  1.98E+03  2.17E-11  6.56E-05  4.93E-05  1.46E-07
   6   25.00  9.55E-02  1.24E-01  0.00E+00  4.20E-04  1.71E-02  2.51E-03  4.24E+03  1.23E-10  7.96E-05  9.99E-05  3.15E-07
   7   24.00  1.10E-01  1.41E-01  0.00E+00  4.68E-04  2.08E-02  3.12E-03  4.94E+03  1.68E-10  8.15E-05  1.11E-04  3.76E-07
   8   23.00  1.27E-01  1.58E-01  0.00E+00  5.21E-04  2.53E-02  3.88E-03  5.76E+03  2.27E-10  8.31E-05  1.22E-04  4.54E-07
   9   22.00  1.46E-01  1.76E-01  0.00E+00  5.80E-04  3.10E-02  4.80E-03  6.72E+03  3.03E-10  8.46E-05  1.33E-04  5.54E-07
  10   21.00  1.68E-01  1.94E-01  0.00E+00  6.46E-04  3.81E-02  5.95E-03  7.85E+03  4.02E-10  8.62E-05  1.44E-04  6.88E-07
  11   20.00  1.93E-01  2.12E-01  0.00E+00  7.28E-04  4.69E-02  7.40E-03  9.18E+03  5.39E-10  8.79E-05  1.54E-04  8.74E-07
  12   19.00  2.21E-01  2.29E-01  0.00E+00  8.35E-04  5.78E-02  9.22E-03  1.07E+04  7.73E-10  8.97E-05  1.63E-04  1.14E-06
  13   18.00  2.55E-01  2.44E-01  0.00E+00  9.88E-04  7.08E-02  1.15E-02  1.26E+04  1.23E-09  9.18E-05  1.71E-04  1.52E-06
  14   17.00  2.94E-01  2.58E-01  0.00E+00  1.21E-03  8.65E-02  1.43E-02  1.47E+04  2.12E-09  9.43E-05  1.77E-04  2.04E-06
  15   16.00  3.40E-01  2.70E-01  0.00E+00  1.54E-03  1.05E-01  1.76E-02  1.72E+04  3.98E-09  9.74E-05  1.82E-04  2.70E-06
  16   15.00  4.03E-01  2.81E-01  0.00E+00  2.03E-03  1.27E-01  2.17E-02  2.01E+04  8.40E-09  1.01E-04  1.85E-04  3.50E-06
  17   14.00  4.92E-01  2.90E-01  0.00E+00  2.76E-03  1.54E-01  2.65E-02  2.35E+04  2.04E-08  1.06E-04  1.87E-04  4.43E-06
  18   13.00  6.48E-01  2.99E-01  0.00E+00  3.85E-03  1.85E-01  3.23E-02  2.75E+04  5.80E-08  1.12E-04  1.88E-04  5.50E-06
  19   12.00  9.76E-01  3.06E-01  0.00E+00  5.43E-03  2.22E-01  3.92E-02  3.21E+04  1.60E-07  1.18E-04  1.89E-04  6.75E-06
  20   11.00  1.68E+00  3.13E-01  0.00E+00  7.62E-03  2.65E-01  4.73E-02  3.76E+04  3.81E-07  1.26E-04  1.90E-04  8.24E-06
  21   10.00  3.26E+00  3.18E-01  0.00E+00  1.05E-02  3.17E-01  5.70E-02  4.40E+04  8.46E-07  1.35E-04  1.91E-04  1.01E-05
  22    9.00  7.09E+00  3.22E-01  0.00E+00  1.42E-02  3.76E-01  6.82E-02  5.13E+04  1.84E-06  1.46E-04  1.92E-04  1.23E-05
  23    8.00  1.70E+01  3.25E-01  0.00E+00  1.87E-02  4.43E-01  8.08E-02  5.96E+04  3.83E-06  1.58E-04  1.92E-04  1.50E-05
  24    7.00  3.76E+01  3.28E-01  0.00E+00  2.41E-02  5.19E-01  9.50E-02  6.89E+04  7.43E-06  1.71E-04  1.93E-04  1.84E-05
  25    6.00  7.43E+01  3.30E-01  0.00E+00  3.04E-02  6.03E-01  1.11E-01  7.93E+04  1.35E-05  1.86E-04  1.95E-04  2.29E-05
  26    5.00  1.38E+02  3.32E-01  0.00E+00  3.76E-02  6.98E-01  1.29E-01  9.09E+04  2.31E-05  2.03E-04  1.96E-04  2.89E-05
  27    4.00  2.47E+02  3.34E-01  0.00E+00  4.57E-02  8.03E-01  1.49E-01  1.04E+05  3.82E-05  2.21E-04  1.97E-04  3.70E-05
  28    3.00  4.28E+02  3.37E-01  0.00E+00  5.48E-02  9.20E-01  1.71E-01  1.18E+05  6.11E-05  2.42E-04  1.99E-04  4.85E-05
  29    2.00  7.23E+02  3.39E-01  0.00E+00  6.53E-02  1.05E+00  1.95E-01  1.34E+05  9.31E-05  2.65E-04  2.01E-04  6.47E-05
  30    1.00  1.17E+03  3.42E-01  0.00E+00  7.73E-02  1.19E+00  2.22E-01  1.52E+05  1.34E-04  2.90E-04  2.03E-04  8.61E-05
  31    0.00  1.81E+03  3.44E-01  0.00E+00  9.09E-02  1.35E+00  2.51E-01  1.71E+05  1.80E-04  3.18E-04  2.05E-04  1.13E-04



1  J    Z      CFC-11    CFC-12    CFC-13    CFC-14    CFC-22    CFC-113   CFC-114   CFC-115   CLONO2     HNO4     CHCL2F
                CCL4      N2O5
      (KM)    (                                                   ATM CM                                                )

   1   50.00  7.97E-16  2.41E-10  5.80E-16  5.80E-16  4.79E-09  2.40E-12  5.83E-10  5.80E-16  4.66E-12  1.18E-11  5.80E-16
              1.06E-18  5.44E-15
   2   45.00  2.07E-14  1.06E-09  1.14E-15  1.14E-15  1.02E-08  1.36E-11  1.39E-09  1.14E-15  3.02E-10  2.17E-10  1.14E-15
              9.26E-17  6.26E-13
   3   40.00  7.72E-13  5.49E-09  2.25E-15  2.25E-15  2.37E-08  9.43E-11  3.59E-09  2.25E-15  1.67E-08  4.90E-09  2.25E-15
              1.23E-14  7.00E-11
   4   35.00  1.20E-10  3.56E-08  4.55E-15  4.55E-15  6.40E-08  9.52E-10  1.05E-08  4.55E-15  5.23E-07  1.40E-07  4.55E-15
              1.69E-11  7.57E-09
   5   30.00  7.34E-09  2.30E-07  9.50E-15  9.50E-15  1.92E-07  9.39E-09  3.38E-08  9.50E-15  4.64E-06  1.70E-06  9.50E-15
              2.72E-09  1.56E-07
   6   25.00  1.52E-07  1.19E-06  2.03E-14  2.03E-14  5.79E-07  6.53E-08  1.08E-07  2.03E-14  1.59E-05  7.61E-06  2.03E-14
              9.14E-08  8.77E-07
   7   24.00  2.55E-07  1.61E-06  2.36E-14  2.36E-14  7.20E-07  9.27E-08  1.35E-07  2.36E-14  1.90E-05  9.51E-06  2.36E-14
              1.63E-07  1.13E-06
   8   23.00  4.11E-07  2.16E-06  2.76E-14  2.76E-14  8.93E-07  1.29E-07  1.69E-07  2.76E-14  2.21E-05  1.15E-05  2.76E-14
              2.79E-07  1.41E-06
   9   22.00  6.47E-07  2.86E-06  3.22E-14  3.22E-14  1.10E-06  1.78E-07  2.11E-07  3.22E-14  2.52E-05  1.36E-05  3.22E-14
              4.65E-07  1.68E-06
  10   21.00  9.87E-07  3.75E-06  3.76E-14  3.76E-14  1.36E-06  2.42E-07  2.63E-07  3.76E-14  2.81E-05  1.57E-05  3.76E-14
              7.44E-07  1.93E-06
  11   20.00  1.46E-06  4.87E-06  4.39E-14  4.39E-14  1.68E-06  3.24E-07  3.26E-07  4.39E-14  3.05E-05  1.77E-05  4.39E-14
              1.14E-06  2.16E-06
  12   19.00  2.10E-06  6.28E-06  5.14E-14  5.14E-14  2.07E-06  4.29E-07  4.03E-07  5.14E-14  3.26E-05  1.96E-05  5.14E-14
              1.69E-06  2.35E-06
  13   18.00  2.94E-06  8.02E-06  6.01E-14  6.01E-14  2.53E-06  5.60E-07  4.96E-07  6.01E-14  3.44E-05  2.15E-05  6.01E-14
              2.43E-06  2.52E-06
  14   17.00  4.02E-06  1.02E-05  7.03E-14  7.03E-14  3.09E-06  7.24E-07  6.09E-07  7.03E-14  3.58E-05  2.32E-05  7.03E-14
              3.41E-06  2.64E-06
  15   16.00  5.43E-06  1.28E-05  8.22E-14  8.22E-14  3.76E-06  9.26E-07  7.44E-07  8.22E-14  3.65E-05  2.46E-05  8.22E-14
              4.69E-06  2.70E-06
  16   15.00  7.17E-06  1.59E-05  9.61E-14  9.61E-14  4.56E-06  1.17E-06  9.05E-07  9.61E-14  3.69E-05  2.58E-05  9.61E-14
              6.29E-06  2.72E-06
  17   14.00  9.27E-06  1.97E-05  1.12E-13  1.12E-13  5.51E-06  1.47E-06  1.10E-06  1.12E-13  3.72E-05  2.70E-05  1.12E-13
              8.23E-06  2.74E-06
  18   13.00  1.18E-05  2.41E-05  1.31E-13  1.31E-13  6.63E-06  1.82E-06  1.32E-06  1.31E-13  3.74E-05  2.82E-05  1.31E-13
              1.06E-05  2.75E-06
  19   12.00  1.49E-05  2.94E-05  1.54E-13  1.54E-13  7.95E-06  2.24E-06  1.59E-06  1.54E-13  3.75E-05  2.93E-05  1.54E-13
              1.34E-05  2.75E-06
  20   11.00  1.85E-05  3.57E-05  1.80E-13  1.80E-13  9.50E-06  2.73E-06  1.90E-06  1.80E-13  3.75E-05  3.05E-05  1.80E-13
              1.68E-05  2.75E-06
  21   10.00  2.28E-05  4.30E-05  2.10E-13  2.10E-13  1.13E-05  3.31E-06  2.27E-06  2.10E-13  3.76E-05  3.19E-05  2.10E-13
              2.07E-05  2.76E-06
  22    9.00  2.77E-05  5.14E-05  2.46E-13  2.46E-13  1.34E-05  3.97E-06  2.69E-06  2.46E-13  3.76E-05  3.36E-05  2.46E-13
              2.53E-05  2.76E-06
  23    8.00  3.32E-05  6.09E-05  2.85E-13  2.85E-13  1.58E-05  4.73E-06  3.16E-06  2.85E-13  3.76E-05  3.56E-05  2.85E-13
              3.04E-05  2.76E-06
  24    7.00  3.94E-05  7.16E-05  3.30E-13  3.30E-13  1.84E-05  5.57E-06  3.70E-06  3.30E-13  3.77E-05  3.76E-05  3.30E-13
              3.61E-05  2.76E-06
  25    6.00  4.64E-05  8.35E-05  3.79E-13  3.79E-13  2.14E-05  6.52E-06  4.29E-06  3.79E-13  3.78E-05  3.93E-05  3.79E-13
              4.25E-05  2.76E-06
  26    5.00  5.42E-05  9.69E-05  4.35E-13  4.35E-13  2.47E-05  7.57E-06  4.96E-06  4.35E-13  3.79E-05  4.06E-05  4.35E-13
              4.98E-05  2.76E-06
  27    4.00  6.28E-05  1.12E-04  4.97E-13  4.97E-13  2.84E-05  8.75E-06  5.70E-06  4.97E-13  3.81E-05  4.14E-05  4.97E-13
              5.78E-05  2.76E-06
  28    3.00  7.24E-05  1.28E-04  5.65E-13  5.65E-13  3.25E-05  1.01E-05  6.53E-06  5.65E-13  3.84E-05  4.18E-05  5.65E-13
              6.67E-05  2.76E-06
  29    2.00  8.31E-05  1.46E-04  6.42E-13  6.42E-13  3.71E-05  1.15E-05  7.44E-06  6.42E-13  3.87E-05  4.22E-05  6.42E-13
              7.66E-05  2.76E-06
  30    1.00  9.49E-05  1.67E-04  7.26E-13  7.26E-13  4.21E-05  1.31E-05  8.45E-06  7.26E-13  3.91E-05  4.24E-05  7.26E-13
              8.75E-05  2.76E-06
  31    0.00  1.08E-04  1.89E-04  8.18E-13  8.18E-13  4.77E-05  1.49E-05  9.56E-06  8.18E-13  3.96E-05  4.25E-05  8.18E-13
              9.96E-05  2.76E-06


0SUMMARY OF THE GEOMETRY CALCULATION

          H1      =     70.000 KM
          H2      =      0.000 KM
          ANGLE   =    180.000 DEG
          RANGE   =     70.000 KM
          BETA    =      0.000 DEG
          PHI     =      0.000 DEG
          HMIN    =      0.000 KM
          BENDING =      0.000 DEG
          LEN     =          0




1EQUIVALENT SEA LEVEL TOTAL ABSORBER AMOUNTS

                 HNO3      O3 UV       CNTMSLF1    CNTMSLF2   CNTMFRN
               (ATM CM)   (ATM CM)     (MOL CM-2)  (MOL CM-2)  (MOL CM-2)  (MOL CM-2)

             3.651E-04   3.442E-01   2.195E+20   1.412E+20   4.222E+22


              N2 CONT    MOL SCAT       AER 1       AER 2       AER 3       AER 4     CIRRUS      MEAN RH
                                                                                                  (PRCNT)

             4.027E+00   8.187E+00   1.082E+00   8.102E-02   7.198E-03   1.582E-04   0.000E+00       80.50


                 H2O        O3          CO2         CO          CH4         N2O          O2
               (                                        ATM CM                            )

             1.809E+03   3.442E-01   0.000E+00   9.092E-02   1.349E+00   2.514E-01   1.710E+05

                 NH3        NO          NO2         SO2
                 (               ATM CM               )

             1.799E-04   3.176E-04   2.047E-04   1.127E-04

             CFC-11      CFC-12      CFC-13      CFC-14      CFC-22      CFC-113     CFC-114
                 (                                      ATM CM                            )

             1.078E-04   1.888E-04   8.182E-13   8.182E-13   4.768E-05   1.485E-05   9.560E-06

             CFC-115     CLONO2       HNO4       CHCL2F       CCL4        N2O5
                 (                                      ATM CM                            )

             8.182E-13   3.961E-05   4.252E-05   8.182E-13   9.956E-05   2.757E-06
1                                             RADIANCE(WATTS/CM2-STER-XXX)
0  FREQ   WAVLEN    PATH THERMAL      SURFACE EMISSION    SURFACE REFLECTED     TOTAL RADIANCE   INTEGRAL    TOTAL
  (CM-1) (MICRN)    (CM-1)   (MICRN)    (CM-1)   (MICRN)    (CM-1)   (MICRN)    (CM-1)   (MICRN)    (CM-1)   TRANS

    100. 100.000  1.28E-06  1.28E-06  0.00E+00  0.00E+00  0.00E+00  0.00E+00  1.28E-06  1.28E-06  1.28E-06  0.00000
    102.  98.039  1.32E-06  1.37E-06  0.00E+00  0.00E+00  0.00E+00  0.00E+00  1.32E-06  1.37E-06  3.92E-06  0.00000
    104.  96.154  1.36E-06  1.47E-06  0.00E+00  0.00E+00  0.00E+00  0.00E+00  1.36E-06  1.47E-06  6.63E-06  0.00000
    106.  94.340  1.41E-06  1.58E-06  0.00E+00  0.00E+00  0.00E+00  0.00E+00  1.41E-06  1.58E-06  9.45E-06  0.00000
    108.  92.593  1.46E-06  1.70E-06  0.00E+00  0.00E+00  0.00E+00  0.00E+00  1.46E-06  1.70E-06  1.24E-05  0.00000
    110.  90.909  1.50E-06  1.82E-06  0.00E+00  0.00E+00  0.00E+00  0.00E+00  1.50E-06  1.82E-06  1.54E-05  0.00000
    112.  89.286  1.54E-06  1.93E-06  0.00E+00  0.00E+00  0.00E+00  0.00E+00  1.54E-06  1.93E-06  1.84E-05  0.00000
    114.  87.719  1.63E-06  2.11E-06  0.00E+00  0.00E+00  0.00E+00  0.00E+00  1.63E-06  2.11E-06  2.17E-05  0.00000
    116.  86.207  1.66E-06  2.24E-06  0.00E+00  0.00E+00  0.00E+00  0.00E+00  1.66E-06  2.24E-06  2.50E-05  0.00000
    118.  84.746  1.68E-06  2.33E-06  0.00E+00  0.00E+00  0.00E+00  0.00E+00  1.68E-06  2.33E-06  2.84E-05  0.00000
    120.  83.333  1.71E-06  2.46E-06  0.00E+00  0.00E+00  0.00E+00  0.00E+00  1.71E-06  2.46E-06  3.18E-05  0.00000
    122.  81.967  1.75E-06  2.61E-06  0.00E+00  0.00E+00  0.00E+00  0.00E+00  1.75E-06  2.61E-06  3.53E-05  0.00000
    124.  80.645  1.80E-06  2.77E-06  0.00E+00  0.00E+00  0.00E+00  0.00E+00  1.80E-06  2.77E-06  3.89E-05  0.00000
    126.  79.365  1.84E-06  2.92E-06  0.00E+00  0.00E+00  0.00E+00  0.00E+00  1.84E-06  2.92E-06  4.26E-05  0.00000
    128.  78.125  1.89E-06  3.09E-06  0.00E+00  0.00E+00  0.00E+00  0.00E+00  1.89E-06  3.09E-06  4.63E-05  0.00000
    130.  76.923  1.94E-06  3.28E-06  0.00E+00  0.00E+00  0.00E+00  0.00E+00  1.94E-06  3.28E-06  5.02E-05  0.00000
    132.  75.758  1.98E-06  3.45E-06  0.00E+00  0.00E+00  0.00E+00  0.00E+00  1.98E-06  3.45E-06  5.42E-05  0.00000
    134.  74.627  2.02E-06  3.64E-06  0.00E+00  0.00E+00  0.00E+00  0.00E+00  2.02E-06  3.64E-06  5.82E-05  0.00000
    136.  73.529  2.10E-06  3.88E-06  0.00E+00  0.00E+00  0.00E+00  0.00E+00  2.10E-06  3.88E-06  6.24E-05  0.00000
    138.  72.464  2.11E-06  4.02E-06  0.00E+00  0.00E+00  0.00E+00  0.00E+00  2.11E-06  4.02E-06  6.66E-05  0.00000
    140.  71.429  2.15E-06  4.22E-06  0.00E+00  0.00E+00  0.00E+00  0.00E+00  2.15E-06  4.22E-06  7.10E-05  0.00000
    142.  70.423  2.23E-06  4.49E-06  0.00E+00  0.00E+00  0.00E+00  0.00E+00  2.23E-06  4.49E-06  7.54E-05  0.00000
    144.  69.444  2.31E-06  4.79E-06  0.00E+00  0.00E+00  0.00E+00  0.00E+00  2.31E-06  4.79E-06  8.00E-05  0.00000
    146.  68.493  2.34E-06  4.98E-06  0.00E+00  0.00E+00  0.00E+00  0.00E+00  2.34E-06  4.98E-06  8.47E-05  0.00000
    148.  67.568  2.34E-06  5.13E-06  0.00E+00  0.00E+00  0.00E+00  0.00E+00  2.34E-06  5.13E-06  8.94E-05  0.00000
    150.  66.667  2.39E-06  5.37E-06  0.00E+00  0.00E+00  0.00E+00  0.00E+00  2.39E-06  5.37E-06  9.42E-05  0.00000
    152.  65.789  2.43E-06  5.61E-06  0.00E+00  0.00E+00  0.00E+00  0.00E+00  2.43E-06  5.61E-06  9.90E-05  0.00000
    154.  64.935  2.47E-06  5.85E-06  0.00E+00  0.00E+00  0.00E+00  0.00E+00  2.47E-06  5.85E-06  1.04E-04  0.00000
    156.  64.103  2.53E-06  6.15E-06  0.00E+00  0.00E+00  0.00E+00  0.00E+00  2.53E-06  6.15E-06  1.09E-04  0.00000
    158.  63.291  2.57E-06  6.42E-06  0.00E+00  0.00E+00  0.00E+00  0.00E+00  2.57E-06  6.42E-06  1.14E-04  0.00000
    160.  62.500  2.66E-06  6.82E-06  0.00E+00  0.00E+00  0.00E+00  0.00E+00  2.66E-06  6.82E-06  1.19E-04  0.00000
    162.  61.728  2.73E-06  7.17E-06  0.00E+00  0.00E+00  0.00E+00  0.00E+00  2.73E-06  7.17E-06  1.25E-04  0.00000
    164.  60.976  2.81E-06  7.55E-06  0.00E+00  0.00E+00  0.00E+00  0.00E+00  2.81E-06  7.55E-06  1.31E-04  0.00000
    166.  60.241  2.77E-06  7.64E-06  0.00E+00  0.00E+00  0.00E+00  0.00E+00  2.77E-06  7.64E-06  1.36E-04  0.00000
    168.  59.524  2.79E-06  7.88E-06  0.00E+00  0.00E+00  0.00E+00  0.00E+00  2.79E-06  7.88E-06  1.42E-04  0.00000
    170.  58.824  2.83E-06  8.19E-06  0.00E+00  0.00E+00  0.00E+00  0.00E+00  2.83E-06  8.19E-06  1.47E-04  0.00000
    172.  58.140  2.86E-06  8.48E-06  0.00E+00  0.00E+00  0.00E+00  0.00E+00  2.86E-06  8.48E-06  1.53E-04  0.00000
    174.  57.471  2.92E-06  8.85E-06  0.00E+00  0.00E+00  0.00E+00  0.00E+00  2.92E-06  8.85E-06  1.59E-04  0.00000
    176.  56.818  2.96E-06  9.18E-06  0.00E+00  0.00E+00  0.00E+00  0.00E+00  2.96E-06  9.18E-06  1.65E-04  0.00000
    178.  56.180  3.01E-06  9.53E-06  0.00E+00  0.00E+00  0.00E+00  0.00E+00  3.01E-06  9.53E-06  1.71E-04  0.00000
    180.  55.556  3.09E-06  1.00E-05  0.00E+00  0.00E+00  0.00E+00  0.00E+00  3.09E-06  1.00E-05  1.77E-04  0.00000
    182.  54.945  3.13E-06  1.04E-05  0.00E+00  0.00E+00  0.00E+00  0.00E+00  3.13E-06  1.04E-05  1.83E-04  0.00000
    184.  54.348  3.25E-06  1.10E-05  0.00E+00  0.00E+00  0.00E+00  0.00E+00  3.25E-06  1.10E-05  1.90E-04  0.00000
    186.  53.763  3.30E-06  1.14E-05  0.00E+00  0.00E+00  0.00E+00  0.00E+00  3.30E-06  1.14E-05  1.96E-04  0.00000
    188.  53.191  3.24E-06  1.15E-05  0.00E+00  0.00E+00  0.00E+00  0.00E+00  3.24E-06  1.15E-05  2.03E-04  0.00000
    190.  52.632  3.37E-06  1.22E-05  0.00E+00  0.00E+00  0.00E+00  0.00E+00  3.37E-06  1.22E-05  2.10E-04  0.00000
    192.  52.083  3.45E-06  1.27E-05  0.00E+00  0.00E+00  0.00E+00  0.00E+00  3.45E-06  1.27E-05  2.17E-04  0.00000
    194.  51.546  3.40E-06  1.28E-05  0.00E+00  0.00E+00  0.00E+00  0.00E+00  3.40E-06  1.28E-05  2.23E-04  0.00000
    196.  51.020  3.47E-06  1.33E-05  0.00E+00  0.00E+00  0.00E+00  0.00E+00  3.47E-06  1.33E-05  2.30E-04  0.00000
    198.  50.505  3.53E-06  1.38E-05  0.00E+00  0.00E+00  0.00E+00  0.00E+00  3.53E-06  1.38E-05  2.37E-04  0.00000
1                                             RADIANCE(WATTS/CM2-STER-XXX)
0  FREQ   WAVLEN    PATH THERMAL      SURFACE EMISSION    SURFACE REFLECTED     TOTAL RADIANCE   INTEGRAL    TOTAL
  (CM-1) (MICRN)    (CM-1)   (MICRN)    (CM-1)   (MICRN)    (CM-1)   (MICRN)    (CM-1)   (MICRN)    (CM-1)   TRANS

    200.  50.000  3.51E-06  1.40E-05  0.00E+00  0.00E+00  0.00E+00  0.00E+00  3.51E-06  1.40E-05  2.44E-04  0.00000
    202.  49.505  3.54E-06  1.44E-05  0.00E+00  0.00E+00  0.00E+00  0.00E+00  3.54E-06  1.44E-05  2.51E-04  0.00000
    204.  49.020  3.57E-06  1.49E-05  0.00E+00  0.00E+00  0.00E+00  0.00E+00  3.57E-06  1.49E-05  2.59E-04  0.00000
    206.  48.544  3.63E-06  1.54E-05  0.00E+00  0.00E+00  0.00E+00  0.00E+00  3.63E-06  1.54E-05  2.66E-04  0.00000
    208.  48.077  3.64E-06  1.58E-05  0.00E+00  0.00E+00  0.00E+00  0.00E+00  3.64E-06  1.58E-05  2.73E-04  0.00000
    210.  47.619  3.72E-06  1.64E-05  0.00E+00  0.00E+00  0.00E+00  0.00E+00  3.72E-06  1.64E-05  2.81E-04  0.00000
    212.  47.170  3.81E-06  1.71E-05  0.00E+00  0.00E+00  0.00E+00  0.00E+00  3.81E-06  1.71E-05  2.88E-04  0.00000
    214.  46.729  3.79E-06  1.74E-05  0.00E+00  0.00E+00  0.00E+00  0.00E+00  3.79E-06  1.74E-05  2.96E-04  0.00000
    216.  46.296  3.96E-06  1.85E-05  0.00E+00  0.00E+00  0.00E+00  0.00E+00  3.96E-06  1.85E-05  3.04E-04  0.00000
    218.  45.872  4.07E-06  1.93E-05  0.00E+00  0.00E+00  0.00E+00  0.00E+00  4.07E-06  1.93E-05  3.12E-04  0.00000
    220.  45.455  4.00E-06  1.94E-05  0.00E+00  0.00E+00  0.00E+00  0.00E+00  4.00E-06  1.94E-05  3.20E-04  0.00000
    222.  45.045  3.93E-06  1.93E-05  0.00E+00  0.00E+00  0.00E+00  0.00E+00  3.93E-06  1.93E-05  3.28E-04  0.00000
    224.  44.643  3.98E-06  2.00E-05  0.00E+00  0.00E+00  0.00E+00  0.00E+00  3.98E-06  2.00E-05  3.36E-04  0.00000
    226.  44.248  4.00E-06  2.04E-05  0.00E+00  0.00E+00  0.00E+00  0.00E+00  4.00E-06  2.04E-05  3.44E-04  0.00000
    228.  43.860  4.04E-06  2.10E-05  0.00E+00  0.00E+00  0.00E+00  0.00E+00  4.04E-06  2.10E-05  3.52E-04  0.00000
    230.  43.478  4.16E-06  2.20E-05  0.00E+00  0.00E+00  0.00E+00  0.00E+00  4.16E-06  2.20E-05  3.60E-04  0.00000
    232.  43.103  4.26E-06  2.29E-05  0.00E+00  0.00E+00  0.00E+00  0.00E+00  4.26E-06  2.29E-05  3.69E-04  0.00000
    234.  42.735  4.41E-06  2.42E-05  0.00E+00  0.00E+00  0.00E+00  0.00E+00  4.41E-06  2.42E-05  3.77E-04  0.00000
    236.  42.373  4.53E-06  2.52E-05  0.00E+00  0.00E+00  0.00E+00  0.00E+00  4.53E-06  2.52E-05  3.86E-04  0.00000
    238.  42.017  4.59E-06  2.60E-05  0.00E+00  0.00E+00  0.00E+00  0.00E+00  4.59E-06  2.60E-05  3.96E-04  0.00000
    240.  41.667  4.63E-06  2.67E-05  0.00E+00  0.00E+00  0.00E+00  0.00E+00  4.63E-06  2.67E-05  4.05E-04  0.00000
    242.  41.322  4.62E-06  2.70E-05  0.00E+00  0.00E+00  0.00E+00  0.00E+00  4.62E-06  2.70E-05  4.14E-04  0.00000
    244.  40.984  4.44E-06  2.64E-05  0.00E+00  0.00E+00  0.00E+00  0.00E+00  4.44E-06  2.64E-05  4.23E-04  0.00000
    246.  40.650  4.35E-06  2.63E-05  0.00E+00  0.00E+00  0.00E+00  0.00E+00  4.35E-06  2.63E-05  4.32E-04  0.00000
    248.  40.323  4.41E-06  2.71E-05  0.00E+00  0.00E+00  0.00E+00  0.00E+00  4.41E-06  2.71E-05  4.40E-04  0.00000
    250.  40.000  4.56E-06  2.85E-05  0.00E+00  0.00E+00  0.00E+00  0.00E+00  4.56E-06  2.85E-05  4.50E-04  0.00000
    252.  39.683  4.53E-06  2.88E-05  0.00E+00  0.00E+00  0.00E+00  0.00E+00  4.53E-06  2.88E-05  4.59E-04  0.00000
    254.  39.370  4.53E-06  2.93E-05  0.00E+00  0.00E+00  0.00E+00  0.00E+00  4.53E-06  2.93E-05  4.68E-04  0.00000
    256.  39.063  4.67E-06  3.06E-05  0.00E+00  0.00E+00  0.00E+00  0.00E+00  4.67E-06  3.06E-05  4.77E-04  0.00000
    258.  38.760  4.93E-06  3.28E-05  0.00E+00  0.00E+00  0.00E+00  0.00E+00  4.93E-06  3.28E-05  4.87E-04  0.00000
    260.  38.462  5.06E-06  3.42E-05  0.00E+00  0.00E+00  0.00E+00  0.00E+00  5.06E-06  3.42E-05  4.97E-04  0.00000
    262.  38.168  5.09E-06  3.49E-05  0.00E+00  0.00E+00  0.00E+00  0.00E+00  5.09E-06  3.49E-05  5.07E-04  0.00000
    264.  37.879  5.07E-06  3.54E-05  0.00E+00  0.00E+00  0.00E+00  0.00E+00  5.07E-06  3.54E-05  5.17E-04  0.00000
    266.  37.594  4.86E-06  3.44E-05  0.00E+00  0.00E+00  0.00E+00  0.00E+00  4.86E-06  3.44E-05  5.27E-04  0.00000
    268.  37.313  5.11E-06  3.67E-05  0.00E+00  0.00E+00  0.00E+00  0.00E+00  5.11E-06  3.67E-05  5.37E-04  0.00000
    270.  37.037  5.30E-06  3.86E-05  0.00E+00  0.00E+00  0.00E+00  0.00E+00  5.30E-06  3.86E-05  5.48E-04  0.00000
    272.  36.765  5.28E-06  3.90E-05  0.00E+00  0.00E+00  0.00E+00  0.00E+00  5.28E-06  3.90E-05  5.58E-04  0.00000
    274.  36.496  5.24E-06  3.93E-05  0.00E+00  0.00E+00  0.00E+00  0.00E+00  5.24E-06  3.93E-05  5.69E-04  0.00000
    276.  36.232  4.95E-06  3.77E-05  0.00E+00  0.00E+00  0.00E+00  0.00E+00  4.95E-06  3.77E-05  5.79E-04  0.00000
    278.  35.971  4.88E-06  3.77E-05  0.00E+00  0.00E+00  0.00E+00  0.00E+00  4.88E-06  3.77E-05  5.89E-04  0.00000
    280.  35.714  4.92E-06  3.86E-05  0.00E+00  0.00E+00  0.00E+00  0.00E+00  4.92E-06  3.86E-05  5.98E-04  0.00000
    282.  35.461  4.95E-06  3.94E-05  0.00E+00  0.00E+00  0.00E+00  0.00E+00  4.95E-06  3.94E-05  6.08E-04  0.00000
    284.  35.211  5.25E-06  4.24E-05  0.00E+00  0.00E+00  0.00E+00  0.00E+00  5.25E-06  4.24E-05  6.19E-04  0.00000
    286.  34.965  5.45E-06  4.46E-05  0.00E+00  0.00E+00  0.00E+00  0.00E+00  5.45E-06  4.46E-05  6.30E-04  0.00000
    288.  34.722  5.30E-06  4.40E-05  0.00E+00  0.00E+00  0.00E+00  0.00E+00  5.30E-06  4.40E-05  6.40E-04  0.00000
    290.  34.483  5.14E-06  4.32E-05  0.00E+00  0.00E+00  0.00E+00  0.00E+00  5.14E-06  4.32E-05  6.51E-04  0.00000
    292.  34.247  5.60E-06  4.78E-05  0.00E+00  0.00E+00  0.00E+00  0.00E+00  5.60E-06  4.78E-05  6.62E-04  0.00000
    294.  34.014  5.80E-06  5.02E-05  0.00E+00  0.00E+00  0.00E+00  0.00E+00  5.80E-06  5.02E-05  6.73E-04  0.00000
    296.  33.784  5.78E-06  5.06E-05  0.00E+00  0.00E+00  0.00E+00  0.00E+00  5.78E-06  5.06E-05  6.85E-04  0.00000
    298.  33.557  5.66E-06  5.02E-05  0.00E+00  0.00E+00  0.00E+00  0.00E+00  5.66E-06  5.02E-05  6.96E-04  0.00000
1                                             RADIANCE(WATTS/CM2-STER-XXX)
0  FREQ   WAVLEN    PATH THERMAL      SURFACE EMISSION    SURFACE REFLECTED     TOTAL RADIANCE   INTEGRAL    TOTAL
  (CM-1) (MICRN)    (CM-1)   (MICRN)    (CM-1)   (MICRN)    (CM-1)   (MICRN)    (CM-1)   (MICRN)    (CM-1)   TRANS

    300.  33.333  5.56E-06  5.01E-05  0.00E+00  0.00E+00  0.00E+00  0.00E+00  5.56E-06  5.01E-05  7.07E-04  0.00000
    302.  33.113  5.25E-06  4.79E-05  0.00E+00  0.00E+00  0.00E+00  0.00E+00  5.25E-06  4.79E-05  7.18E-04  0.00000
    304.  32.895  5.36E-06  4.95E-05  0.00E+00  0.00E+00  0.00E+00  0.00E+00  5.36E-06  4.95E-05  7.29E-04  0.00000
    306.  32.680  5.82E-06  5.45E-05  0.00E+00  0.00E+00  0.00E+00  0.00E+00  5.82E-06  5.45E-05  7.40E-04  0.00000
    308.  32.468  6.00E-06  5.69E-05  0.00E+00  0.00E+00  0.00E+00  0.00E+00  6.00E-06  5.69E-05  7.52E-04  0.00000
    310.  32.258  6.08E-06  5.85E-05  4.90E-44  4.71E-43  0.00E+00  0.00E+00  6.08E-06  5.85E-05  7.65E-04  0.00000
    312.  32.051  6.15E-06  5.99E-05  2.51E-43  2.44E-42  0.00E+00  0.00E+00  6.15E-06  5.99E-05  7.77E-04  0.00000
    314.  31.847  5.89E-06  5.81E-05  4.97E-41  4.90E-40  0.00E+00  0.00E+00  5.89E-06  5.81E-05  7.89E-04  0.00000
    316.  31.646  5.87E-06  5.86E-05  4.97E-41  4.96E-40  0.00E+00  0.00E+00  5.87E-06  5.86E-05  8.00E-04  0.00000
    318.  31.447  6.32E-06  6.39E-05  1.68E-40  1.70E-39  0.00E+00  0.00E+00  6.32E-06  6.39E-05  8.13E-04  0.00000
    320.  31.250  6.27E-06  6.42E-05  5.25E-41  5.38E-40  0.00E+00  0.00E+00  6.27E-06  6.42E-05  8.26E-04  0.00000
    322.  31.056  5.94E-06  6.16E-05  0.00E+00  0.00E+00  0.00E+00  0.00E+00  5.94E-06  6.16E-05  8.37E-04  0.00000
    324.  30.864  5.58E-06  5.86E-05  1.40E-45  1.40E-44  0.00E+00  0.00E+00  5.58E-06  5.86E-05  8.49E-04  0.00000
    326.  30.675  5.91E-06  6.28E-05  0.00E+00  0.00E+00  0.00E+00  0.00E+00  5.91E-06  6.28E-05  8.60E-04  0.00000
    328.  30.488  5.66E-06  6.09E-05  2.80E-45  3.08E-44  0.00E+00  0.00E+00  5.66E-06  6.09E-05  8.72E-04  0.00000
    330.  30.303  6.27E-06  6.83E-05  0.00E+00  0.00E+00  0.00E+00  0.00E+00  6.27E-06  6.83E-05  8.84E-04  0.00000
    332.  30.120  6.49E-06  7.15E-05  1.50E-42  1.65E-41  0.00E+00  0.00E+00  6.49E-06  7.15E-05  8.97E-04  0.00000
    334.  29.940  6.07E-06  6.77E-05  5.94E-36  6.63E-35  0.00E+00  0.00E+00  6.07E-06  6.77E-05  9.09E-04  0.00000
    336.  29.762  5.91E-06  6.67E-05  5.94E-36  6.71E-35  0.00E+00  0.00E+00  5.91E-06  6.67E-05  9.21E-04  0.00000
    338.  29.586  6.61E-06  7.56E-05  4.82E-37  5.50E-36  0.00E+00  0.00E+00  6.61E-06  7.56E-05  9.34E-04  0.00000
    340.  29.412  6.29E-06  7.27E-05  4.00E-32  4.63E-31  0.00E+00  0.00E+00  6.29E-06  7.27E-05  9.47E-04  0.00000
    342.  29.240  6.33E-06  7.40E-05  5.95E-32  6.96E-31  0.00E+00  0.00E+00  6.33E-06  7.40E-05  9.60E-04  0.00000
    344.  29.070  6.57E-06  7.77E-05  1.95E-32  2.31E-31  0.00E+00  0.00E+00  6.57E-06  7.77E-05  9.73E-04  0.00000
    346.  28.902  6.64E-06  7.95E-05  5.94E-33  7.11E-32  0.00E+00  0.00E+00  6.64E-06  7.95E-05  9.86E-04  0.00000
    348.  28.736  6.59E-06  7.98E-05  1.85E-34  2.24E-33  0.00E+00  0.00E+00  6.59E-06  7.98E-05  9.99E-04  0.00000
    350.  28.571  6.04E-06  7.40E-05  0.00E+00  0.00E+00  0.00E+00  0.00E+00  6.04E-06  7.40E-05  1.01E-03  0.00000
    352.  28.409  6.05E-06  7.50E-05  0.00E+00  0.00E+00  0.00E+00  0.00E+00  6.05E-06  7.50E-05  1.02E-03  0.00000
    354.  28.249  6.07E-06  7.60E-05  0.00E+00  0.00E+00  0.00E+00  0.00E+00  6.07E-06  7.60E-05  1.04E-03  0.00000
    356.  28.090  6.24E-06  7.91E-05  1.92E-41  2.43E-40  0.00E+00  0.00E+00  6.24E-06  7.91E-05  1.05E-03  0.00000
    358.  27.933  6.20E-06  7.94E-05  1.92E-41  2.46E-40  0.00E+00  0.00E+00  6.20E-06  7.94E-05  1.06E-03  0.00000
    360.  27.778  7.07E-06  9.17E-05  7.30E-24  9.47E-23  0.00E+00  0.00E+00  7.07E-06  9.17E-05  1.07E-03  0.00000
    362.  27.624  7.26E-06  9.52E-05  4.50E-21  5.89E-20  0.00E+00  0.00E+00  7.26E-06  9.52E-05  1.09E-03  0.00000
    364.  27.473  7.38E-06  9.78E-05  6.63E-19  8.79E-18  0.00E+00  0.00E+00  7.38E-06  9.78E-05  1.10E-03  0.00000
    366.  27.322  7.49E-06  1.00E-04  2.06E-18  2.76E-17  0.00E+00  0.00E+00  7.49E-06  1.00E-04  1.12E-03  0.00000
    368.  27.174  7.16E-06  9.70E-05  1.27E-19  1.72E-18  0.00E+00  0.00E+00  7.16E-06  9.70E-05  1.13E-03  0.00000
    370.  27.027  6.52E-06  8.93E-05  2.01E-24  2.76E-23  0.00E+00  0.00E+00  6.52E-06  8.93E-05  1.15E-03  0.00000
    372.  26.882  7.27E-06  1.01E-04  4.44E-25  6.14E-24  0.00E+00  0.00E+00  7.27E-06  1.01E-04  1.16E-03  0.00000
    374.  26.738  6.50E-06  9.09E-05  3.55E-37  4.97E-36  0.00E+00  0.00E+00  6.50E-06  9.09E-05  1.17E-03  0.00000
    376.  26.596  6.46E-06  9.14E-05  0.00E+00  0.00E+00  0.00E+00  0.00E+00  6.46E-06  9.14E-05  1.19E-03  0.00000
    378.  26.455  7.34E-06  1.05E-04  3.29E-20  4.70E-19  0.00E+00  0.00E+00  7.34E-06  1.05E-04  1.20E-03  0.00000
    380.  26.316  7.62E-06  1.10E-04  2.75E-17  3.97E-16  0.00E+00  0.00E+00  7.62E-06  1.10E-04  1.22E-03  0.00000
    382.  26.178  7.65E-06  1.12E-04  2.20E-17  3.21E-16  0.00E+00  0.00E+00  7.65E-06  1.12E-04  1.23E-03  0.00000
    384.  26.042  6.75E-06  9.96E-05  1.55E-28  2.28E-27  0.00E+00  0.00E+00  6.75E-06  9.96E-05  1.25E-03  0.00000
    386.  25.907  6.72E-06  1.00E-04  1.96E-20  2.92E-19  0.00E+00  0.00E+00  6.72E-06  1.00E-04  1.26E-03  0.00000
    388.  25.773  7.88E-06  1.19E-04  1.14E-14  1.71E-13  0.00E+00  0.00E+00  7.88E-06  1.19E-04  1.27E-03  0.00000
    390.  25.641  8.02E-06  1.22E-04  3.71E-14  5.64E-13  0.00E+00  0.00E+00  8.02E-06  1.22E-04  1.29E-03  0.00000
    392.  25.510  7.99E-06  1.23E-04  1.11E-14  1.71E-13  0.00E+00  0.00E+00  7.99E-06  1.23E-04  1.31E-03  0.00000
    394.  25.381  7.14E-06  1.11E-04  2.04E-20  3.17E-19  0.00E+00  0.00E+00  7.14E-06  1.11E-04  1.32E-03  0.00000
    396.  25.253  6.58E-06  1.03E-04  2.88E-37  4.52E-36  0.00E+00  0.00E+00  6.58E-06  1.03E-04  1.33E-03  0.00000
    398.  25.126  6.45E-06  1.02E-04  1.80E-34  2.86E-33  0.00E+00  0.00E+00  6.45E-06  1.02E-04  1.35E-03  0.00000
1                                             RADIANCE(WATTS/CM2-STER-XXX)
0  FREQ   WAVLEN    PATH THERMAL      SURFACE EMISSION    SURFACE REFLECTED     TOTAL RADIANCE   INTEGRAL    TOTAL
  (CM-1) (MICRN)    (CM-1)   (MICRN)    (CM-1)   (MICRN)    (CM-1)   (MICRN)    (CM-1)   (MICRN)    (CM-1)   TRANS

    400.  25.000  6.93E-06  1.11E-04  1.35E-29  2.17E-28  0.00E+00  0.00E+00  6.93E-06  1.11E-04  1.36E-03  0.00000
    402.  24.876  8.12E-06  1.31E-04  2.24E-13  3.63E-12  0.00E+00  0.00E+00  8.12E-06  1.31E-04  1.38E-03  0.00000
    404.  24.752  8.34E-06  1.36E-04  3.78E-12  6.17E-11  0.00E+00  0.00E+00  8.34E-06  1.36E-04  1.39E-03  0.00000
    406.  24.631  8.44E-06  1.39E-04  3.12E-11  5.14E-10  0.00E+00  0.00E+00  8.44E-06  1.39E-04  1.41E-03  0.00000
    408.  24.510  8.62E-06  1.44E-04  1.18E-10  1.97E-09  0.00E+00  0.00E+00  8.62E-06  1.44E-04  1.43E-03  0.00001
    410.  24.390  8.65E-06  1.45E-04  1.32E-10  2.21E-09  0.00E+00  0.00E+00  8.65E-06  1.45E-04  1.45E-03  0.00001
    412.  24.272  8.65E-06  1.47E-04  9.76E-11  1.66E-09  0.00E+00  0.00E+00  8.65E-06  1.47E-04  1.46E-03  0.00001
    414.  24.155  8.45E-06  1.45E-04  1.60E-11  2.74E-10  0.00E+00  0.00E+00  8.45E-06  1.45E-04  1.48E-03  0.00000
    416.  24.038  7.96E-06  1.38E-04  1.13E-14  1.96E-13  0.00E+00  0.00E+00  7.96E-06  1.38E-04  1.50E-03  0.00000
    418.  23.923  6.61E-06  1.15E-04  1.55E-25  2.71E-24  0.00E+00  0.00E+00  6.61E-06  1.15E-04  1.51E-03  0.00000
    420.  23.810  6.71E-06  1.18E-04  3.26E-30  5.76E-29  0.00E+00  0.00E+00  6.71E-06  1.18E-04  1.52E-03  0.00000
    422.  23.697  7.66E-06  1.36E-04  1.16E-18  2.06E-17  0.00E+00  0.00E+00  7.66E-06  1.36E-04  1.54E-03  0.00000
    424.  23.585  7.81E-06  1.40E-04  1.18E-15  2.13E-14  0.00E+00  0.00E+00  7.81E-06  1.40E-04  1.55E-03  0.00000
    426.  23.474  7.86E-06  1.43E-04  9.28E-13  1.68E-11  0.00E+00  0.00E+00  7.86E-06  1.43E-04  1.57E-03  0.00000
    428.  23.364  8.80E-06  1.61E-04  4.11E-10  7.53E-09  0.00E+00  0.00E+00  8.80E-06  1.61E-04  1.59E-03  0.00004
    430.  23.256  8.41E-06  1.56E-04  1.83E-10  3.39E-09  0.00E+00  0.00E+00  8.41E-06  1.56E-04  1.60E-03  0.00002
    432.  23.148  8.19E-06  1.53E-04  3.28E-10  6.11E-09  0.00E+00  0.00E+00  8.19E-06  1.53E-04  1.62E-03  0.00003
    434.  23.041  8.81E-06  1.66E-04  4.00E-10  7.53E-09  0.00E+00  0.00E+00  8.82E-06  1.66E-04  1.64E-03  0.00003
    436.  22.936  8.25E-06  1.57E-04  5.76E-12  1.10E-10  0.00E+00  0.00E+00  8.25E-06  1.57E-04  1.65E-03  0.00000
    438.  22.831  9.05E-06  1.74E-04  1.74E-09  3.35E-08  0.00E+00  0.00E+00  9.05E-06  1.74E-04  1.67E-03  0.00015
    440.  22.727  8.83E-06  1.71E-04  1.06E-09  2.04E-08  0.00E+00  0.00E+00  8.83E-06  1.71E-04  1.69E-03  0.00009
    442.  22.624  7.26E-06  1.42E-04  4.34E-14  8.48E-13  0.00E+00  0.00E+00  7.26E-06  1.42E-04  1.70E-03  0.00000
    444.  22.523  8.15E-06  1.61E-04  4.96E-11  9.78E-10  0.00E+00  0.00E+00  8.15E-06  1.61E-04  1.72E-03  0.00000
    446.  22.422  8.55E-06  1.70E-04  5.17E-11  1.03E-09  0.00E+00  0.00E+00  8.55E-06  1.70E-04  1.74E-03  0.00000
    448.  22.321  9.07E-06  1.82E-04  5.72E-09  1.15E-07  0.00E+00  0.00E+00  9.07E-06  1.82E-04  1.76E-03  0.00049
    450.  22.222  9.28E-06  1.88E-04  6.36E-09  1.29E-07  0.00E+00  0.00E+00  9.28E-06  1.88E-04  1.77E-03  0.00054
    452.  22.124  8.48E-06  1.73E-04  5.96E-10  1.22E-08  0.00E+00  0.00E+00  8.48E-06  1.73E-04  1.79E-03  0.00005
    454.  22.026  8.67E-06  1.79E-04  5.84E-11  1.20E-09  0.00E+00  0.00E+00  8.67E-06  1.79E-04  1.81E-03  0.00000
    456.  21.930  8.00E-06  1.66E-04  6.68E-12  1.39E-10  0.00E+00  0.00E+00  8.00E-06  1.66E-04  1.82E-03  0.00000
    458.  21.834  6.94E-06  1.46E-04  1.12E-15  2.36E-14  0.00E+00  0.00E+00  6.94E-06  1.46E-04  1.84E-03  0.00000
    460.  21.739  8.67E-06  1.83E-04  4.07E-11  8.62E-10  0.00E+00  0.00E+00  8.67E-06  1.83E-04  1.86E-03  0.00000
    462.  21.645  9.19E-06  1.96E-04  7.17E-09  1.53E-07  0.00E+00  0.00E+00  9.19E-06  1.96E-04  1.87E-03  0.00060
    464.  21.552  9.60E-06  2.07E-04  4.35E-08  9.36E-07  0.00E+00  0.00E+00  9.64E-06  2.08E-04  1.89E-03  0.00364
    466.  21.459  9.43E-06  2.05E-04  3.13E-08  6.79E-07  0.00E+00  0.00E+00  9.47E-06  2.06E-04  1.91E-03  0.00262
    468.  21.368  8.64E-06  1.89E-04  5.61E-10  1.23E-08  0.00E+00  0.00E+00  8.64E-06  1.89E-04  1.93E-03  0.00005
    470.  21.277  8.98E-06  1.98E-04  1.28E-09  2.83E-08  0.00E+00  0.00E+00  8.98E-06  1.98E-04  1.95E-03  0.00011
    472.  21.186  7.23E-06  1.61E-04  2.35E-13  5.24E-12  0.00E+00  0.00E+00  7.23E-06  1.61E-04  1.96E-03  0.00000
    474.  21.097  8.32E-06  1.87E-04  1.67E-09  3.75E-08  0.00E+00  0.00E+00  8.33E-06  1.87E-04  1.98E-03  0.00014
    476.  21.008  9.36E-06  2.12E-04  1.76E-08  4.00E-07  0.00E+00  0.00E+00  9.38E-06  2.12E-04  2.00E-03  0.00146
    478.  20.921  9.85E-06  2.25E-04  1.52E-07  3.46E-06  0.00E+00  0.00E+00  1.00E-05  2.28E-04  2.02E-03  0.01257
    480.  20.833  9.66E-06  2.22E-04  1.15E-07  2.65E-06  0.00E+00  0.00E+00  9.77E-06  2.25E-04  2.04E-03  0.00953
    482.  20.747  9.11E-06  2.12E-04  1.23E-08  2.85E-07  0.00E+00  0.00E+00  9.13E-06  2.12E-04  2.05E-03  0.00102
    484.  20.661  7.86E-06  1.84E-04  8.77E-10  2.05E-08  0.00E+00  0.00E+00  7.86E-06  1.84E-04  2.07E-03  0.00007
    486.  20.576  9.21E-06  2.17E-04  1.95E-08  4.61E-07  0.00E+00  0.00E+00  9.23E-06  2.18E-04  2.09E-03  0.00161
    488.  20.492  9.92E-06  2.36E-04  2.56E-07  6.10E-06  0.00E+00  0.00E+00  1.02E-05  2.42E-04  2.11E-03  0.02112
    490.  20.408  9.84E-06  2.36E-04  1.80E-07  4.31E-06  0.00E+00  0.00E+00  1.00E-05  2.41E-04  2.13E-03  0.01479
    492.  20.325  8.56E-06  2.07E-04  5.88E-09  1.42E-07  0.00E+00  0.00E+00  8.56E-06  2.07E-04  2.15E-03  0.00048
    494.  20.243  9.61E-06  2.35E-04  1.56E-07  3.82E-06  0.00E+00  0.00E+00  9.77E-06  2.38E-04  2.17E-03  0.01284
    496.  20.161  9.87E-06  2.43E-04  6.19E-07  1.52E-05  0.00E+00  0.00E+00  1.05E-05  2.58E-04  2.19E-03  0.05077
    498.  20.080  9.87E-06  2.45E-04  6.27E-07  1.56E-05  0.00E+00  0.00E+00  1.05E-05  2.60E-04  2.21E-03  0.05144
1                                             RADIANCE(WATTS/CM2-STER-XXX)
0  FREQ   WAVLEN    PATH THERMAL      SURFACE EMISSION    SURFACE REFLECTED     TOTAL RADIANCE   INTEGRAL    TOTAL
  (CM-1) (MICRN)    (CM-1)   (MICRN)    (CM-1)   (MICRN)    (CM-1)   (MICRN)    (CM-1)   (MICRN)    (CM-1)   TRANS

    500.  20.000  9.74E-06  2.44E-04  1.86E-07  4.65E-06  0.00E+00  0.00E+00  9.93E-06  2.48E-04  2.23E-03  0.01524
    502.  19.920  8.16E-06  2.06E-04  4.48E-10  1.13E-08  0.00E+00  0.00E+00  8.16E-06  2.06E-04  2.24E-03  0.00004
    504.  19.841  9.18E-06  2.33E-04  8.77E-09  2.23E-07  0.00E+00  0.00E+00  9.19E-06  2.33E-04  2.26E-03  0.00072
    506.  19.763  8.41E-06  2.15E-04  6.18E-09  1.58E-07  0.00E+00  0.00E+00  8.42E-06  2.16E-04  2.28E-03  0.00051
    508.  19.685  9.00E-06  2.32E-04  6.73E-08  1.74E-06  0.00E+00  0.00E+00  9.07E-06  2.34E-04  2.30E-03  0.00549
    510.  19.608  9.63E-06  2.51E-04  1.08E-07  2.80E-06  0.00E+00  0.00E+00  9.74E-06  2.53E-04  2.32E-03  0.00878
    512.  19.531  9.58E-06  2.51E-04  2.99E-07  7.83E-06  0.00E+00  0.00E+00  9.88E-06  2.59E-04  2.34E-03  0.02436
    514.  19.455  9.82E-06  2.59E-04  3.22E-07  8.50E-06  0.00E+00  0.00E+00  1.01E-05  2.68E-04  2.36E-03  0.02621
    516.  19.380  8.72E-06  2.32E-04  9.60E-09  2.56E-07  0.00E+00  0.00E+00  8.73E-06  2.33E-04  2.37E-03  0.00078
    518.  19.305  8.07E-06  2.17E-04  1.66E-11  4.47E-10  0.00E+00  0.00E+00  8.07E-06  2.17E-04  2.39E-03  0.00000
    520.  19.231  8.56E-06  2.31E-04  1.30E-08  3.51E-07  0.00E+00  0.00E+00  8.57E-06  2.32E-04  2.41E-03  0.00106
    522.  19.157  9.97E-06  2.72E-04  3.97E-07  1.08E-05  0.00E+00  0.00E+00  1.04E-05  2.82E-04  2.43E-03  0.03224
    524.  19.084  9.57E-06  2.63E-04  1.99E-07  5.45E-06  0.00E+00  0.00E+00  9.77E-06  2.68E-04  2.45E-03  0.01614
    526.  19.011  8.28E-06  2.29E-04  5.38E-09  1.49E-07  0.00E+00  0.00E+00  8.28E-06  2.29E-04  2.46E-03  0.00044
    528.  18.939  9.80E-06  2.73E-04  5.39E-07  1.50E-05  0.00E+00  0.00E+00  1.03E-05  2.88E-04  2.49E-03  0.04374
    530.  18.868  9.33E-06  2.62E-04  1.52E-06  4.27E-05  0.00E+00  0.00E+00  1.09E-05  3.05E-04  2.51E-03  0.12343
    532.  18.797  9.11E-06  2.58E-04  1.87E-06  5.30E-05  0.00E+00  0.00E+00  1.10E-05  3.11E-04  2.53E-03  0.15195
    534.  18.727  9.63E-06  2.75E-04  9.69E-07  2.76E-05  0.00E+00  0.00E+00  1.06E-05  3.02E-04  2.55E-03  0.07857
    536.  18.657  9.00E-06  2.58E-04  2.68E-07  7.70E-06  0.00E+00  0.00E+00  9.26E-06  2.66E-04  2.57E-03  0.02173
    538.  18.587  9.34E-06  2.70E-04  1.30E-06  3.75E-05  0.00E+00  0.00E+00  1.06E-05  3.08E-04  2.59E-03  0.10514
    540.  18.519  9.13E-06  2.66E-04  1.32E-06  3.86E-05  0.00E+00  0.00E+00  1.05E-05  3.05E-04  2.61E-03  0.10724
    542.  18.450  9.41E-06  2.76E-04  8.74E-07  2.57E-05  0.00E+00  0.00E+00  1.03E-05  3.02E-04  2.63E-03  0.07082
    544.  18.382  9.29E-06  2.75E-04  6.95E-07  2.06E-05  0.00E+00  0.00E+00  9.99E-06  2.96E-04  2.65E-03  0.05635
    546.  18.315  8.35E-06  2.49E-04  4.72E-09  1.41E-07  0.00E+00  0.00E+00  8.36E-06  2.49E-04  2.67E-03  0.00038
    548.  18.248  9.24E-06  2.77E-04  2.95E-07  8.87E-06  0.00E+00  0.00E+00  9.54E-06  2.86E-04  2.69E-03  0.02392
    550.  18.182  9.34E-06  2.83E-04  3.69E-07  1.12E-05  0.00E+00  0.00E+00  9.71E-06  2.94E-04  2.71E-03  0.02992
    552.  18.116  9.29E-06  2.83E-04  1.36E-06  4.15E-05  0.00E+00  0.00E+00  1.07E-05  3.25E-04  2.73E-03  0.11024
    554.  18.051  9.29E-06  2.85E-04  8.02E-07  2.46E-05  0.00E+00  0.00E+00  1.01E-05  3.10E-04  2.75E-03  0.06498
    556.  17.986  8.93E-06  2.76E-04  1.34E-06  4.14E-05  0.00E+00  0.00E+00  1.03E-05  3.18E-04  2.77E-03  0.10851
    558.  17.921  8.80E-06  2.74E-04  2.11E-06  6.57E-05  0.00E+00  0.00E+00  1.09E-05  3.40E-04  2.79E-03  0.17106
    560.  17.857  8.30E-06  2.60E-04  2.80E-06  8.80E-05  0.00E+00  0.00E+00  1.11E-05  3.48E-04  2.81E-03  0.22727
    562.  17.794  8.44E-06  2.66E-04  2.08E-06  6.58E-05  0.00E+00  0.00E+00  1.05E-05  3.32E-04  2.83E-03  0.16882
    564.  17.730  9.19E-06  2.92E-04  8.42E-07  2.68E-05  0.00E+00  0.00E+00  1.00E-05  3.19E-04  2.85E-03  0.06826
    566.  17.668  8.99E-06  2.88E-04  8.99E-07  2.88E-05  0.00E+00  0.00E+00  9.89E-06  3.17E-04  2.87E-03  0.07290
    568.  17.606  8.48E-06  2.74E-04  9.09E-09  2.93E-07  0.00E+00  0.00E+00  8.49E-06  2.74E-04  2.89E-03  0.00074
    570.  17.544  8.81E-06  2.86E-04  8.33E-08  2.71E-06  0.00E+00  0.00E+00  8.90E-06  2.89E-04  2.91E-03  0.00676
    572.  17.483  9.13E-06  2.99E-04  1.31E-06  4.28E-05  0.00E+00  0.00E+00  1.04E-05  3.42E-04  2.93E-03  0.10615
    574.  17.422  8.73E-06  2.88E-04  1.98E-06  6.52E-05  0.00E+00  0.00E+00  1.07E-05  3.53E-04  2.95E-03  0.16077
    576.  17.361  8.70E-06  2.89E-04  1.60E-07  5.32E-06  0.00E+00  0.00E+00  8.86E-06  2.94E-04  2.97E-03  0.01301
    578.  17.301  9.02E-06  3.01E-04  1.31E-06  4.36E-05  0.00E+00  0.00E+00  1.03E-05  3.45E-04  2.99E-03  0.10609
    580.  17.241  8.85E-06  2.98E-04  5.27E-07  1.77E-05  0.00E+00  0.00E+00  9.38E-06  3.16E-04  3.01E-03  0.04285
    582.  17.182  8.90E-06  3.02E-04  6.81E-07  2.31E-05  0.00E+00  0.00E+00  9.58E-06  3.25E-04  3.03E-03  0.05542
    584.  17.123  9.16E-06  3.12E-04  1.15E-06  3.91E-05  0.00E+00  0.00E+00  1.03E-05  3.51E-04  3.05E-03  0.09316
    586.  17.065  8.32E-06  2.86E-04  2.28E-06  7.82E-05  0.00E+00  0.00E+00  1.06E-05  3.64E-04  3.07E-03  0.18540
    588.  17.007  7.53E-06  2.60E-04  2.44E-06  8.44E-05  0.00E+00  0.00E+00  9.97E-06  3.45E-04  3.09E-03  0.19886
    590.  16.949  8.15E-06  2.84E-04  5.32E-07  1.85E-05  0.00E+00  0.00E+00  8.68E-06  3.02E-04  3.11E-03  0.04338
    592.  16.892  8.13E-06  2.85E-04  6.53E-09  2.29E-07  0.00E+00  0.00E+00  8.14E-06  2.85E-04  3.12E-03  0.00053
    594.  16.835  9.25E-06  3.26E-04  2.44E-07  8.61E-06  0.00E+00  0.00E+00  9.50E-06  3.35E-04  3.14E-03  0.01992
    596.  16.779  8.11E-06  2.88E-04  2.15E-06  7.65E-05  0.00E+00  0.00E+00  1.03E-05  3.65E-04  3.16E-03  0.17585
    598.  16.722  7.70E-06  2.75E-04  3.20E-06  1.14E-04  0.00E+00  0.00E+00  1.09E-05  3.90E-04  3.18E-03  0.26133
1                                             RADIANCE(WATTS/CM2-STER-XXX)
0  FREQ   WAVLEN    PATH THERMAL      SURFACE EMISSION    SURFACE REFLECTED     TOTAL RADIANCE   INTEGRAL    TOTAL
  (CM-1) (MICRN)    (CM-1)   (MICRN)    (CM-1)   (MICRN)    (CM-1)   (MICRN)    (CM-1)   (MICRN)    (CM-1)   TRANS

    600.  16.667  8.60E-06  3.09E-04  1.10E-06  3.96E-05  0.00E+00  0.00E+00  9.70E-06  3.49E-04  3.20E-03  0.09002
    602.  16.611  7.70E-06  2.79E-04  3.11E-06  1.13E-04  0.00E+00  0.00E+00  1.08E-05  3.92E-04  3.22E-03  0.25458
    604.  16.556  8.02E-06  2.93E-04  2.34E-06  8.54E-05  0.00E+00  0.00E+00  1.04E-05  3.78E-04  3.25E-03  0.19169
    606.  16.502  6.83E-06  2.51E-04  4.18E-06  1.54E-04  0.00E+00  0.00E+00  1.10E-05  4.05E-04  3.27E-03  0.34300
    608.  16.447  6.68E-06  2.47E-04  4.44E-06  1.64E-04  0.00E+00  0.00E+00  1.11E-05  4.11E-04  3.29E-03  0.36430
    610.  16.393  6.71E-06  2.50E-04  4.41E-06  1.64E-04  0.00E+00  0.00E+00  1.11E-05  4.14E-04  3.31E-03  0.36197
    612.  16.340  7.57E-06  2.84E-04  2.96E-06  1.11E-04  0.00E+00  0.00E+00  1.05E-05  3.95E-04  3.33E-03  0.24307
    614.  16.287  8.06E-06  3.04E-04  2.40E-06  9.05E-05  0.00E+00  0.00E+00  1.05E-05  3.94E-04  3.35E-03  0.19746
    616.  16.234  8.48E-06  3.22E-04  4.68E-07  1.78E-05  0.00E+00  0.00E+00  8.95E-06  3.40E-04  3.37E-03  0.03856
    618.  16.181  7.86E-06  3.00E-04  2.78E-06  1.06E-04  0.00E+00  0.00E+00  1.06E-05  4.06E-04  3.39E-03  0.22903
    620.  16.129  8.05E-06  3.09E-04  2.59E-06  9.97E-05  0.00E+00  0.00E+00  1.06E-05  4.09E-04  3.41E-03  0.21391
    622.  16.077  7.11E-06  2.75E-04  3.73E-06  1.44E-04  0.00E+00  0.00E+00  1.08E-05  4.20E-04  3.44E-03  0.30843
    624.  16.026  7.74E-06  3.01E-04  2.53E-06  9.86E-05  0.00E+00  0.00E+00  1.03E-05  4.00E-04  3.46E-03  0.20921
    626.  15.974  8.46E-06  3.31E-04  1.06E-06  4.17E-05  0.00E+00  0.00E+00  9.52E-06  3.73E-04  3.48E-03  0.08811
    628.  15.924  6.22E-06  2.45E-04  5.04E-06  1.99E-04  0.00E+00  0.00E+00  1.13E-05  4.44E-04  3.50E-03  0.41731
    630.  15.873  5.75E-06  2.28E-04  5.57E-06  2.21E-04  0.00E+00  0.00E+00  1.13E-05  4.49E-04  3.52E-03  0.46184
    632.  15.823  6.69E-06  2.67E-04  4.08E-06  1.63E-04  0.00E+00  0.00E+00  1.08E-05  4.30E-04  3.54E-03  0.33856
    634.  15.773  8.26E-06  3.32E-04  1.63E-06  6.56E-05  0.00E+00  0.00E+00  9.89E-06  3.98E-04  3.56E-03  0.13576
    636.  15.723  8.70E-06  3.52E-04  1.11E-06  4.49E-05  0.00E+00  0.00E+00  9.81E-06  3.97E-04  3.58E-03  0.09233
    638.  15.674  8.32E-06  3.39E-04  1.39E-06  5.67E-05  0.00E+00  0.00E+00  9.72E-06  3.96E-04  3.60E-03  0.11606
    640.  15.625  7.79E-06  3.19E-04  2.37E-06  9.71E-05  0.00E+00  0.00E+00  1.02E-05  4.16E-04  3.62E-03  0.19776
    642.  15.576  6.56E-06  2.70E-04  4.40E-06  1.81E-04  0.00E+00  0.00E+00  1.10E-05  4.52E-04  3.64E-03  0.36750
    644.  15.528  7.62E-06  3.16E-04  2.38E-06  9.88E-05  0.00E+00  0.00E+00  1.00E-05  4.15E-04  3.66E-03  0.19918
    646.  15.480  6.88E-06  2.87E-04  3.69E-06  1.54E-04  0.00E+00  0.00E+00  1.06E-05  4.41E-04  3.68E-03  0.30895
    648.  15.432  4.80E-06  2.02E-04  6.49E-06  2.72E-04  0.00E+00  0.00E+00  1.13E-05  4.74E-04  3.71E-03  0.54413
    650.  15.385  4.88E-06  2.06E-04  6.33E-06  2.68E-04  0.00E+00  0.00E+00  1.12E-05  4.74E-04  3.73E-03  0.53188
    652.  15.337  6.12E-06  2.60E-04  4.60E-06  1.95E-04  0.00E+00  0.00E+00  1.07E-05  4.55E-04  3.75E-03  0.38680
    654.  15.291  4.60E-06  1.97E-04  6.65E-06  2.84E-04  0.00E+00  0.00E+00  1.13E-05  4.81E-04  3.77E-03  0.56015
    656.  15.244  4.65E-06  2.00E-04  6.47E-06  2.79E-04  0.00E+00  0.00E+00  1.11E-05  4.79E-04  3.80E-03  0.54607
    658.  15.198  6.25E-06  2.71E-04  4.00E-06  1.73E-04  0.00E+00  0.00E+00  1.03E-05  4.44E-04  3.82E-03  0.33812
    660.  15.152  7.68E-06  3.34E-04  2.10E-06  9.15E-05  0.00E+00  0.00E+00  9.78E-06  4.26E-04  3.84E-03  0.17787
    662.  15.106  6.31E-06  2.77E-04  4.09E-06  1.79E-04  0.00E+00  0.00E+00  1.04E-05  4.56E-04  3.86E-03  0.34684
    664.  15.060  5.37E-06  2.37E-04  5.37E-06  2.37E-04  0.00E+00  0.00E+00  1.07E-05  4.73E-04  3.88E-03  0.45560
    666.  15.015  4.69E-06  2.08E-04  6.31E-06  2.80E-04  0.00E+00  0.00E+00  1.10E-05  4.88E-04  3.90E-03  0.53640
    668.  14.970  7.02E-06  3.13E-04  2.84E-06  1.27E-04  0.00E+00  0.00E+00  9.86E-06  4.40E-04  3.92E-03  0.24165
    670.  14.925  6.85E-06  3.07E-04  3.16E-06  1.42E-04  0.00E+00  0.00E+00  1.00E-05  4.49E-04  3.94E-03  0.26986
    672.  14.881  5.89E-06  2.66E-04  4.53E-06  2.05E-04  0.00E+00  0.00E+00  1.04E-05  4.71E-04  3.96E-03  0.38722
    674.  14.837  5.07E-06  2.30E-04  5.50E-06  2.50E-04  0.00E+00  0.00E+00  1.06E-05  4.80E-04  3.98E-03  0.47024
    676.  14.793  4.04E-06  1.85E-04  6.99E-06  3.19E-04  0.00E+00  0.00E+00  1.10E-05  5.04E-04  4.00E-03  0.59898
    678.  14.749  5.61E-06  2.58E-04  4.76E-06  2.19E-04  0.00E+00  0.00E+00  1.04E-05  4.77E-04  4.02E-03  0.40870
    680.  14.706  4.81E-06  2.23E-04  5.62E-06  2.60E-04  0.00E+00  0.00E+00  1.04E-05  4.83E-04  4.05E-03  0.48376
    682.  14.663  3.89E-06  1.81E-04  7.03E-06  3.27E-04  0.00E+00  0.00E+00  1.09E-05  5.08E-04  4.07E-03  0.60591
    684.  14.620  3.89E-06  1.82E-04  6.92E-06  3.24E-04  0.00E+00  0.00E+00  1.08E-05  5.05E-04  4.09E-03  0.59694
    686.  14.577  4.93E-06  2.32E-04  5.53E-06  2.60E-04  0.00E+00  0.00E+00  1.05E-05  4.92E-04  4.11E-03  0.47842
    688.  14.535  7.37E-06  3.49E-04  1.74E-06  8.22E-05  0.00E+00  0.00E+00  9.11E-06  4.31E-04  4.13E-03  0.15049
    690.  14.493  6.67E-06  3.17E-04  3.06E-06  1.46E-04  0.00E+00  0.00E+00  9.73E-06  4.63E-04  4.15E-03  0.26571
    692.  14.451  4.73E-06  2.27E-04  5.76E-06  2.76E-04  0.00E+00  0.00E+00  1.05E-05  5.03E-04  4.17E-03  0.50094
    694.  14.409  6.89E-06  3.32E-04  2.65E-06  1.28E-04  0.00E+00  0.00E+00  9.55E-06  4.60E-04  4.19E-03  0.23098
    696.  14.368  7.24E-06  3.51E-04  2.31E-06  1.12E-04  0.00E+00  0.00E+00  9.56E-06  4.63E-04  4.21E-03  0.20192
    698.  14.327  6.72E-06  3.28E-04  2.80E-06  1.37E-04  0.00E+00  0.00E+00  9.53E-06  4.64E-04  4.23E-03  0.24517
1                                             RADIANCE(WATTS/CM2-STER-XXX)
0  FREQ   WAVLEN    PATH THERMAL      SURFACE EMISSION    SURFACE REFLECTED     TOTAL RADIANCE   INTEGRAL    TOTAL
  (CM-1) (MICRN)    (CM-1)   (MICRN)    (CM-1)   (MICRN)    (CM-1)   (MICRN)    (CM-1)   (MICRN)    (CM-1)   TRANS

    700.  14.286  3.86E-06  1.89E-04  6.96E-06  3.41E-04  0.00E+00  0.00E+00  1.08E-05  5.30E-04  4.25E-03  0.61003
    702.  14.245  3.94E-06  1.94E-04  6.84E-06  3.37E-04  0.00E+00  0.00E+00  1.08E-05  5.31E-04  4.27E-03  0.60041
    704.  14.205  6.42E-06  3.18E-04  3.19E-06  1.58E-04  0.00E+00  0.00E+00  9.61E-06  4.76E-04  4.29E-03  0.28074
    706.  14.164  7.30E-06  3.64E-04  1.89E-06  9.42E-05  0.00E+00  0.00E+00  9.19E-06  4.58E-04  4.31E-03  0.16662
    708.  14.124  5.75E-06  2.88E-04  4.07E-06  2.04E-04  0.00E+00  0.00E+00  9.82E-06  4.92E-04  4.33E-03  0.35970
    710.  14.085  3.59E-06  1.81E-04  6.87E-06  3.46E-04  0.00E+00  0.00E+00  1.05E-05  5.27E-04  4.35E-03  0.60793
    712.  14.045  4.33E-06  2.20E-04  5.83E-06  2.96E-04  0.00E+00  0.00E+00  1.02E-05  5.15E-04  4.37E-03  0.51711
    714.  14.006  5.74E-06  2.92E-04  3.99E-06  2.03E-04  0.00E+00  0.00E+00  9.72E-06  4.96E-04  4.39E-03  0.35449
    716.  13.966  3.32E-06  1.70E-04  7.03E-06  3.61E-04  0.00E+00  0.00E+00  1.03E-05  5.31E-04  4.41E-03  0.62632
    718.  13.928  3.57E-06  1.84E-04  6.77E-06  3.49E-04  0.00E+00  0.00E+00  1.03E-05  5.33E-04  4.43E-03  0.60453
    720.  13.889  3.47E-06  1.80E-04  6.93E-06  3.59E-04  0.00E+00  0.00E+00  1.04E-05  5.40E-04  4.45E-03  0.62010
    722.  13.850  3.37E-06  1.76E-04  6.96E-06  3.63E-04  0.00E+00  0.00E+00  1.03E-05  5.39E-04  4.47E-03  0.62405
    724.  13.812  3.05E-06  1.60E-04  7.28E-06  3.82E-04  0.00E+00  0.00E+00  1.03E-05  5.41E-04  4.49E-03  0.65398
    726.  13.774  3.01E-06  1.58E-04  7.54E-06  3.97E-04  0.00E+00  0.00E+00  1.05E-05  5.56E-04  4.51E-03  0.67851
    728.  13.736  3.90E-06  2.07E-04  6.23E-06  3.30E-04  0.00E+00  0.00E+00  1.01E-05  5.37E-04  4.53E-03  0.56181
    730.  13.699  5.53E-06  2.95E-04  3.91E-06  2.08E-04  0.00E+00  0.00E+00  9.44E-06  5.03E-04  4.55E-03  0.35383
    732.  13.661  3.89E-06  2.09E-04  6.25E-06  3.35E-04  0.00E+00  0.00E+00  1.01E-05  5.44E-04  4.57E-03  0.56675
    734.  13.624  2.89E-06  1.56E-04  7.59E-06  4.09E-04  0.00E+00  0.00E+00  1.05E-05  5.65E-04  4.59E-03  0.68973
    736.  13.587  2.86E-06  1.55E-04  7.48E-06  4.05E-04  0.00E+00  0.00E+00  1.03E-05  5.60E-04  4.61E-03  0.68108
    738.  13.550  2.84E-06  1.55E-04  7.59E-06  4.14E-04  0.00E+00  0.00E+00  1.04E-05  5.68E-04  4.63E-03  0.69316
    740.  13.514  4.23E-06  2.32E-04  5.84E-06  3.20E-04  0.00E+00  0.00E+00  1.01E-05  5.51E-04  4.65E-03  0.53392
    742.  13.477  5.19E-06  2.86E-04  4.46E-06  2.46E-04  0.00E+00  0.00E+00  9.65E-06  5.31E-04  4.67E-03  0.40948
    744.  13.441  4.62E-06  2.55E-04  5.15E-06  2.85E-04  0.00E+00  0.00E+00  9.77E-06  5.41E-04  4.69E-03  0.47360
    746.  13.405  3.52E-06  1.96E-04  6.62E-06  3.68E-04  0.00E+00  0.00E+00  1.01E-05  5.64E-04  4.71E-03  0.61008
    748.  13.369  4.30E-06  2.41E-04  5.50E-06  3.08E-04  0.00E+00  0.00E+00  9.80E-06  5.49E-04  4.73E-03  0.50814
    750.  13.333  2.94E-06  1.65E-04  7.29E-06  4.10E-04  0.00E+00  0.00E+00  1.02E-05  5.75E-04  4.75E-03  0.67475
    752.  13.298  3.50E-06  1.98E-04  6.62E-06  3.74E-04  0.00E+00  0.00E+00  1.01E-05  5.72E-04  4.77E-03  0.61461
    754.  13.263  4.67E-06  2.66E-04  5.05E-06  2.87E-04  0.00E+00  0.00E+00  9.72E-06  5.53E-04  4.79E-03  0.46973
    756.  13.228  3.83E-06  2.19E-04  6.09E-06  3.48E-04  0.00E+00  0.00E+00  9.91E-06  5.67E-04  4.81E-03  0.56832
    758.  13.193  2.53E-06  1.45E-04  7.71E-06  4.43E-04  0.00E+00  0.00E+00  1.02E-05  5.88E-04  4.83E-03  0.72129
    760.  13.158  2.71E-06  1.56E-04  7.54E-06  4.36E-04  0.00E+00  0.00E+00  1.02E-05  5.92E-04  4.85E-03  0.70739
    762.  13.123  2.52E-06  1.46E-04  7.71E-06  4.48E-04  0.00E+00  0.00E+00  1.02E-05  5.94E-04  4.87E-03  0.72517
    764.  13.089  2.42E-06  1.41E-04  7.80E-06  4.55E-04  0.00E+00  0.00E+00  1.02E-05  5.97E-04  4.89E-03  0.73570
    766.  13.055  2.51E-06  1.47E-04  7.69E-06  4.51E-04  0.00E+00  0.00E+00  1.02E-05  5.98E-04  4.91E-03  0.72678
    768.  13.021  3.02E-06  1.78E-04  7.00E-06  4.13E-04  0.00E+00  0.00E+00  1.00E-05  5.91E-04  4.93E-03  0.66313
    770.  12.987  3.56E-06  2.11E-04  6.28E-06  3.73E-04  0.00E+00  0.00E+00  9.84E-06  5.84E-04  4.95E-03  0.59727
    772.  12.953  2.38E-06  1.42E-04  7.77E-06  4.63E-04  0.00E+00  0.00E+00  1.01E-05  6.05E-04  4.97E-03  0.74017
    774.  12.920  2.46E-06  1.47E-04  7.66E-06  4.59E-04  0.00E+00  0.00E+00  1.01E-05  6.07E-04  4.99E-03  0.73204
    776.  12.887  4.40E-06  2.65E-04  5.11E-06  3.08E-04  0.00E+00  0.00E+00  9.51E-06  5.73E-04  5.01E-03  0.48978
    778.  12.853  3.50E-06  2.12E-04  6.24E-06  3.78E-04  0.00E+00  0.00E+00  9.74E-06  5.89E-04  5.03E-03  0.59968
    780.  12.821  2.79E-06  1.70E-04  7.15E-06  4.35E-04  0.00E+00  0.00E+00  9.95E-06  6.05E-04  5.05E-03  0.68906
    782.  12.788  2.36E-06  1.44E-04  7.68E-06  4.70E-04  0.00E+00  0.00E+00  1.00E-05  6.14E-04  5.07E-03  0.74179
    784.  12.755  4.34E-06  2.67E-04  4.92E-06  3.03E-04  0.00E+00  0.00E+00  9.27E-06  5.70E-04  5.09E-03  0.47675
    786.  12.723  2.60E-06  1.60E-04  7.34E-06  4.54E-04  0.00E+00  0.00E+00  9.94E-06  6.14E-04  5.11E-03  0.71311
    788.  12.690  2.20E-06  1.37E-04  7.78E-06  4.83E-04  0.00E+00  0.00E+00  9.98E-06  6.20E-04  5.13E-03  0.75784
    790.  12.658  2.15E-06  1.34E-04  7.80E-06  4.87E-04  0.00E+00  0.00E+00  9.95E-06  6.21E-04  5.15E-03  0.76148
    792.  12.626  2.46E-06  1.54E-04  7.39E-06  4.64E-04  0.00E+00  0.00E+00  9.85E-06  6.18E-04  5.17E-03  0.72385
    794.  12.594  3.71E-06  2.34E-04  5.80E-06  3.66E-04  0.00E+00  0.00E+00  9.51E-06  5.99E-04  5.19E-03  0.56974
    796.  12.563  4.25E-06  2.69E-04  4.81E-06  3.05E-04  0.00E+00  0.00E+00  9.06E-06  5.74E-04  5.21E-03  0.47417
    798.  12.531  4.44E-06  2.83E-04  4.63E-06  2.95E-04  0.00E+00  0.00E+00  9.08E-06  5.78E-04  5.23E-03  0.45770
1                                             RADIANCE(WATTS/CM2-STER-XXX)
0  FREQ   WAVLEN    PATH THERMAL      SURFACE EMISSION    SURFACE REFLECTED     TOTAL RADIANCE   INTEGRAL    TOTAL
  (CM-1) (MICRN)    (CM-1)   (MICRN)    (CM-1)   (MICRN)    (CM-1)   (MICRN)    (CM-1)   (MICRN)    (CM-1)   TRANS

    800.  12.500  3.30E-06  2.11E-04  6.02E-06  3.85E-04  0.00E+00  0.00E+00  9.32E-06  5.96E-04  5.25E-03  0.59650
    802.  12.469  2.55E-06  1.64E-04  7.15E-06  4.60E-04  0.00E+00  0.00E+00  9.70E-06  6.24E-04  5.26E-03  0.71027
    804.  12.438  3.49E-06  2.25E-04  5.90E-06  3.81E-04  0.00E+00  0.00E+00  9.39E-06  6.07E-04  5.28E-03  0.58783
    806.  12.407  2.22E-06  1.44E-04  7.50E-06  4.87E-04  0.00E+00  0.00E+00  9.72E-06  6.32E-04  5.30E-03  0.75004
    808.  12.376  3.25E-06  2.12E-04  6.13E-06  4.00E-04  0.00E+00  0.00E+00  9.38E-06  6.12E-04  5.32E-03  0.61427
    810.  12.346  2.00E-06  1.31E-04  7.69E-06  5.05E-04  0.00E+00  0.00E+00  9.70E-06  6.36E-04  5.34E-03  0.77355
    812.  12.315  1.93E-06  1.27E-04  7.75E-06  5.11E-04  0.00E+00  0.00E+00  9.68E-06  6.38E-04  5.36E-03  0.78155
    814.  12.285  3.17E-06  2.10E-04  6.18E-06  4.10E-04  0.00E+00  0.00E+00  9.35E-06  6.20E-04  5.38E-03  0.62548
    816.  12.255  2.30E-06  1.53E-04  7.23E-06  4.81E-04  0.00E+00  0.00E+00  9.53E-06  6.35E-04  5.40E-03  0.73341
    818.  12.225  1.83E-06  1.22E-04  7.78E-06  5.20E-04  0.00E+00  0.00E+00  9.60E-06  6.43E-04  5.42E-03  0.79141
    820.  12.195  1.80E-06  1.21E-04  7.78E-06  5.23E-04  0.00E+00  0.00E+00  9.58E-06  6.44E-04  5.44E-03  0.79398
    822.  12.165  1.80E-06  1.21E-04  7.75E-06  5.24E-04  0.00E+00  0.00E+00  9.55E-06  6.45E-04  5.46E-03  0.79396
    824.  12.136  2.03E-06  1.38E-04  7.42E-06  5.04E-04  0.00E+00  0.00E+00  9.45E-06  6.42E-04  5.47E-03  0.76212
    826.  12.107  2.18E-06  1.49E-04  7.21E-06  4.92E-04  0.00E+00  0.00E+00  9.39E-06  6.41E-04  5.49E-03  0.74327
    828.  12.077  2.81E-06  1.93E-04  6.39E-06  4.38E-04  0.00E+00  0.00E+00  9.21E-06  6.31E-04  5.51E-03  0.66099
    830.  12.048  1.73E-06  1.19E-04  7.71E-06  5.31E-04  0.00E+00  0.00E+00  9.44E-06  6.50E-04  5.53E-03  0.79940
    832.  12.019  1.70E-06  1.18E-04  7.71E-06  5.34E-04  0.00E+00  0.00E+00  9.41E-06  6.52E-04  5.55E-03  0.80218
    834.  11.990  1.69E-06  1.18E-04  7.69E-06  5.35E-04  0.00E+00  0.00E+00  9.38E-06  6.53E-04  5.57E-03  0.80260
    836.  11.962  1.83E-06  1.28E-04  7.50E-06  5.24E-04  0.00E+00  0.00E+00  9.33E-06  6.52E-04  5.59E-03  0.78550
    838.  11.933  1.72E-06  1.21E-04  7.59E-06  5.33E-04  0.00E+00  0.00E+00  9.31E-06  6.54E-04  5.61E-03  0.79759
    840.  11.905  2.69E-06  1.89E-04  6.36E-06  4.49E-04  0.00E+00  0.00E+00  9.04E-06  6.38E-04  5.62E-03  0.66986
    842.  11.876  1.95E-06  1.38E-04  7.23E-06  5.12E-04  0.00E+00  0.00E+00  9.17E-06  6.50E-04  5.64E-03  0.76396
    844.  11.848  1.65E-06  1.17E-04  7.55E-06  5.38E-04  0.00E+00  0.00E+00  9.20E-06  6.55E-04  5.66E-03  0.80076
    846.  11.820  1.66E-06  1.19E-04  7.50E-06  5.37E-04  0.00E+00  0.00E+00  9.16E-06  6.55E-04  5.68E-03  0.79787
    848.  11.792  1.69E-06  1.21E-04  7.43E-06  5.34E-04  0.00E+00  0.00E+00  9.12E-06  6.56E-04  5.70E-03  0.79324
    850.  11.765  2.51E-06  1.81E-04  6.33E-06  4.57E-04  0.00E+00  0.00E+00  8.84E-06  6.39E-04  5.71E-03  0.67823
    852.  11.737  3.40E-06  2.47E-04  5.16E-06  3.74E-04  0.00E+00  0.00E+00  8.56E-06  6.21E-04  5.73E-03  0.55399
    854.  11.710  2.56E-06  1.87E-04  6.28E-06  4.58E-04  0.00E+00  0.00E+00  8.84E-06  6.45E-04  5.75E-03  0.67744
    856.  11.682  1.98E-06  1.45E-04  6.95E-06  5.09E-04  0.00E+00  0.00E+00  8.94E-06  6.55E-04  5.77E-03  0.75242
    858.  11.655  1.56E-06  1.15E-04  7.45E-06  5.48E-04  0.00E+00  0.00E+00  9.01E-06  6.63E-04  5.79E-03  0.80835
    860.  11.628  1.58E-06  1.17E-04  7.39E-06  5.47E-04  0.00E+00  0.00E+00  8.98E-06  6.64E-04  5.80E-03  0.80520
    862.  11.601  1.48E-06  1.10E-04  7.48E-06  5.56E-04  0.00E+00  0.00E+00  8.96E-06  6.66E-04  5.82E-03  0.81749
    864.  11.574  1.79E-06  1.33E-04  7.07E-06  5.27E-04  0.00E+00  0.00E+00  8.85E-06  6.61E-04  5.84E-03  0.77488
    866.  11.547  1.80E-06  1.35E-04  7.01E-06  5.26E-04  0.00E+00  0.00E+00  8.82E-06  6.61E-04  5.86E-03  0.77189
    868.  11.521  1.45E-06  1.09E-04  7.40E-06  5.58E-04  0.00E+00  0.00E+00  8.85E-06  6.67E-04  5.87E-03  0.81747
    870.  11.494  1.76E-06  1.33E-04  6.97E-06  5.27E-04  0.00E+00  0.00E+00  8.72E-06  6.60E-04  5.89E-03  0.77207
    872.  11.468  1.80E-06  1.37E-04  6.88E-06  5.23E-04  0.00E+00  0.00E+00  8.68E-06  6.60E-04  5.91E-03  0.76554
    874.  11.442  1.42E-06  1.08E-04  7.35E-06  5.61E-04  0.00E+00  0.00E+00  8.76E-06  6.69E-04  5.93E-03  0.81976
    876.  11.416  1.43E-06  1.09E-04  7.30E-06  5.60E-04  0.00E+00  0.00E+00  8.73E-06  6.70E-04  5.94E-03  0.81786
    878.  11.390  1.68E-06  1.29E-04  6.94E-06  5.35E-04  0.00E+00  0.00E+00  8.61E-06  6.64E-04  5.96E-03  0.77973
    880.  11.364  1.73E-06  1.34E-04  6.84E-06  5.30E-04  0.00E+00  0.00E+00  8.57E-06  6.64E-04  5.98E-03  0.77142
    882.  11.338  1.56E-06  1.21E-04  7.03E-06  5.47E-04  0.00E+00  0.00E+00  8.59E-06  6.68E-04  6.00E-03  0.79624
    884.  11.312  1.89E-06  1.48E-04  6.57E-06  5.14E-04  0.00E+00  0.00E+00  8.47E-06  6.62E-04  6.01E-03  0.74674
    886.  11.287  1.74E-06  1.36E-04  6.70E-06  5.26E-04  0.00E+00  0.00E+00  8.44E-06  6.62E-04  6.03E-03  0.76352
    888.  11.261  1.92E-06  1.52E-04  6.44E-06  5.08E-04  0.00E+00  0.00E+00  8.36E-06  6.59E-04  6.05E-03  0.73674
    890.  11.236  1.65E-06  1.31E-04  6.78E-06  5.37E-04  0.00E+00  0.00E+00  8.44E-06  6.68E-04  6.06E-03  0.77855
    892.  11.211  1.41E-06  1.12E-04  7.05E-06  5.61E-04  0.00E+00  0.00E+00  8.45E-06  6.73E-04  6.08E-03  0.81208
    894.  11.186  1.31E-06  1.05E-04  7.14E-06  5.70E-04  0.00E+00  0.00E+00  8.45E-06  6.75E-04  6.10E-03  0.82528
    896.  11.161  1.33E-06  1.07E-04  7.06E-06  5.67E-04  0.00E+00  0.00E+00  8.39E-06  6.73E-04  6.11E-03  0.81920
    898.  11.136  1.37E-06  1.11E-04  7.01E-06  5.65E-04  0.00E+00  0.00E+00  8.38E-06  6.76E-04  6.13E-03  0.81692
1                                             RADIANCE(WATTS/CM2-STER-XXX)
0  FREQ   WAVLEN    PATH THERMAL      SURFACE EMISSION    SURFACE REFLECTED     TOTAL RADIANCE   INTEGRAL    TOTAL
  (CM-1) (MICRN)    (CM-1)   (MICRN)    (CM-1)   (MICRN)    (CM-1)   (MICRN)    (CM-1)   (MICRN)    (CM-1)   TRANS

    900.  11.111  1.28E-06  1.03E-04  7.09E-06  5.75E-04  0.00E+00  0.00E+00  8.37E-06  6.78E-04  6.15E-03  0.82948
    902.  11.086  1.28E-06  1.04E-04  7.06E-06  5.75E-04  0.00E+00  0.00E+00  8.34E-06  6.78E-04  6.16E-03  0.82900
    904.  11.062  1.28E-06  1.04E-04  7.03E-06  5.74E-04  0.00E+00  0.00E+00  8.31E-06  6.79E-04  6.18E-03  0.82774
    906.  11.038  1.46E-06  1.20E-04  6.77E-06  5.56E-04  0.00E+00  0.00E+00  8.24E-06  6.76E-04  6.20E-03  0.80068
    908.  11.013  1.71E-06  1.41E-04  6.40E-06  5.28E-04  0.00E+00  0.00E+00  8.11E-06  6.69E-04  6.21E-03  0.75972
    910.  10.989  1.67E-06  1.38E-04  6.41E-06  5.31E-04  0.00E+00  0.00E+00  8.08E-06  6.69E-04  6.23E-03  0.76424
    912.  10.965  1.27E-06  1.05E-04  6.90E-06  5.74E-04  0.00E+00  0.00E+00  8.17E-06  6.80E-04  6.25E-03  0.82546
    914.  10.941  1.35E-06  1.13E-04  6.77E-06  5.66E-04  0.00E+00  0.00E+00  8.12E-06  6.79E-04  6.26E-03  0.81256
    916.  10.917  1.24E-06  1.04E-04  6.88E-06  5.77E-04  0.00E+00  0.00E+00  8.12E-06  6.81E-04  6.28E-03  0.82881
    918.  10.893  1.36E-06  1.15E-04  6.70E-06  5.65E-04  0.00E+00  0.00E+00  8.06E-06  6.80E-04  6.29E-03  0.81032
    920.  10.870  1.27E-06  1.08E-04  6.78E-06  5.73E-04  0.00E+00  0.00E+00  8.05E-06  6.81E-04  6.31E-03  0.82245
    922.  10.846  1.80E-06  1.53E-04  6.06E-06  5.15E-04  0.00E+00  0.00E+00  7.86E-06  6.68E-04  6.33E-03  0.73892
    924.  10.823  1.53E-06  1.30E-04  6.39E-06  5.45E-04  0.00E+00  0.00E+00  7.91E-06  6.76E-04  6.34E-03  0.78119
    926.  10.799  1.46E-06  1.26E-04  6.43E-06  5.51E-04  0.00E+00  0.00E+00  7.89E-06  6.77E-04  6.36E-03  0.78953
    928.  10.776  1.24E-06  1.06E-04  6.69E-06  5.76E-04  0.00E+00  0.00E+00  7.93E-06  6.83E-04  6.37E-03  0.82488
    930.  10.753  1.23E-06  1.06E-04  6.67E-06  5.76E-04  0.00E+00  0.00E+00  7.90E-06  6.83E-04  6.39E-03  0.82487
    932.  10.730  1.19E-06  1.03E-04  6.69E-06  5.81E-04  0.00E+00  0.00E+00  7.88E-06  6.84E-04  6.40E-03  0.83106
    934.  10.707  1.15E-06  1.01E-04  6.71E-06  5.86E-04  0.00E+00  0.00E+00  7.87E-06  6.86E-04  6.42E-03  0.83748
    936.  10.684  1.14E-06  9.99E-05  6.70E-06  5.87E-04  0.00E+00  0.00E+00  7.85E-06  6.87E-04  6.44E-03  0.83952
    938.  10.661  1.13E-06  9.91E-05  6.69E-06  5.89E-04  0.00E+00  0.00E+00  7.82E-06  6.88E-04  6.45E-03  0.84147
    940.  10.638  1.15E-06  1.02E-04  6.63E-06  5.86E-04  0.00E+00  0.00E+00  7.78E-06  6.88E-04  6.47E-03  0.83644
    942.  10.616  1.15E-06  1.02E-04  6.61E-06  5.86E-04  0.00E+00  0.00E+00  7.75E-06  6.88E-04  6.48E-03  0.83704
    944.  10.593  1.15E-06  1.03E-04  6.56E-06  5.85E-04  0.00E+00  0.00E+00  7.72E-06  6.88E-04  6.50E-03  0.83504
    946.  10.571  1.16E-06  1.04E-04  6.52E-06  5.84E-04  0.00E+00  0.00E+00  7.68E-06  6.88E-04  6.51E-03  0.83286
    948.  10.549  1.66E-06  1.49E-04  5.83E-06  5.24E-04  0.00E+00  0.00E+00  7.49E-06  6.73E-04  6.53E-03  0.74783
    950.  10.526  1.10E-06  9.92E-05  6.53E-06  5.90E-04  0.00E+00  0.00E+00  7.63E-06  6.89E-04  6.54E-03  0.84124
    952.  10.504  1.17E-06  1.06E-04  6.42E-06  5.82E-04  0.00E+00  0.00E+00  7.59E-06  6.88E-04  6.56E-03  0.82929
    954.  10.482  1.30E-06  1.19E-04  6.21E-06  5.66E-04  0.00E+00  0.00E+00  7.52E-06  6.84E-04  6.57E-03  0.80650
    956.  10.460  1.26E-06  1.15E-04  6.23E-06  5.70E-04  0.00E+00  0.00E+00  7.50E-06  6.85E-04  6.59E-03  0.81241
    958.  10.438  1.08E-06  9.88E-05  6.44E-06  5.91E-04  0.00E+00  0.00E+00  7.51E-06  6.89E-04  6.60E-03  0.84196
    960.  10.417  1.15E-06  1.06E-04  6.31E-06  5.82E-04  0.00E+00  0.00E+00  7.46E-06  6.88E-04  6.62E-03  0.82924
    962.  10.395  1.06E-06  9.81E-05  6.39E-06  5.91E-04  0.00E+00  0.00E+00  7.45E-06  6.89E-04  6.63E-03  0.84287
    964.  10.373  1.04E-06  9.64E-05  6.38E-06  5.93E-04  0.00E+00  0.00E+00  7.42E-06  6.90E-04  6.65E-03  0.84537
    966.  10.352  1.16E-06  1.08E-04  6.20E-06  5.79E-04  0.00E+00  0.00E+00  7.36E-06  6.87E-04  6.66E-03  0.82506
    968.  10.331  1.09E-06  1.02E-04  6.26E-06  5.86E-04  0.00E+00  0.00E+00  7.34E-06  6.88E-04  6.68E-03  0.83558
    970.  10.309  1.13E-06  1.06E-04  6.18E-06  5.81E-04  0.00E+00  0.00E+00  7.30E-06  6.87E-04  6.69E-03  0.82793
    972.  10.288  1.29E-06  1.22E-04  5.94E-06  5.62E-04  0.00E+00  0.00E+00  7.23E-06  6.83E-04  6.71E-03  0.80039
    974.  10.267  1.27E-06  1.20E-04  5.93E-06  5.62E-04  0.00E+00  0.00E+00  7.19E-06  6.82E-04  6.72E-03  0.80121
    976.  10.246  1.33E-06  1.27E-04  5.80E-06  5.53E-04  0.00E+00  0.00E+00  7.14E-06  6.80E-04  6.74E-03  0.78803
    978.  10.225  1.09E-06  1.04E-04  6.07E-06  5.80E-04  0.00E+00  0.00E+00  7.16E-06  6.85E-04  6.75E-03  0.82735
    980.  10.204  1.01E-06  9.72E-05  6.12E-06  5.88E-04  0.00E+00  0.00E+00  7.13E-06  6.85E-04  6.76E-03  0.83752
    982.  10.183  1.03E-06  9.89E-05  6.05E-06  5.83E-04  0.00E+00  0.00E+00  7.07E-06  6.82E-04  6.78E-03  0.83135
    984.  10.163  1.06E-06  1.03E-04  5.96E-06  5.77E-04  0.00E+00  0.00E+00  7.02E-06  6.80E-04  6.79E-03  0.82211
    986.  10.142  1.01E-06  9.78E-05  5.95E-06  5.78E-04  0.00E+00  0.00E+00  6.95E-06  6.76E-04  6.81E-03  0.82467
    988.  10.121  1.01E-06  9.88E-05  5.87E-06  5.73E-04  0.00E+00  0.00E+00  6.89E-06  6.72E-04  6.82E-03  0.81770
    990.  10.101  1.04E-06  1.02E-04  5.76E-06  5.65E-04  0.00E+00  0.00E+00  6.80E-06  6.66E-04  6.83E-03  0.80540
    992.  10.081  1.05E-06  1.03E-04  5.63E-06  5.54E-04  0.00E+00  0.00E+00  6.68E-06  6.57E-04  6.85E-03  0.79028
    994.  10.060  1.07E-06  1.06E-04  5.51E-06  5.44E-04  0.00E+00  0.00E+00  6.58E-06  6.50E-04  6.86E-03  0.77695
    996.  10.040  1.09E-06  1.08E-04  5.36E-06  5.31E-04  0.00E+00  0.00E+00  6.45E-06  6.40E-04  6.87E-03  0.75873
    998.  10.020  1.19E-06  1.19E-04  5.06E-06  5.04E-04  0.00E+00  0.00E+00  6.25E-06  6.23E-04  6.89E-03  0.72006
1                                             RADIANCE(WATTS/CM2-STER-XXX)
0  FREQ   WAVLEN    PATH THERMAL      SURFACE EMISSION    SURFACE REFLECTED     TOTAL RADIANCE   INTEGRAL    TOTAL
  (CM-1) (MICRN)    (CM-1)   (MICRN)    (CM-1)   (MICRN)    (CM-1)   (MICRN)    (CM-1)   (MICRN)    (CM-1)   TRANS

   1000.  10.000  1.32E-06  1.32E-04  4.79E-06  4.79E-04  0.00E+00  0.00E+00  6.11E-06  6.11E-04  6.90E-03  0.68399
   1002.   9.980  1.23E-06  1.23E-04  4.67E-06  4.69E-04  0.00E+00  0.00E+00  5.90E-06  5.92E-04  6.91E-03  0.66993
   1004.   9.960  1.37E-06  1.38E-04  4.37E-06  4.40E-04  0.00E+00  0.00E+00  5.73E-06  5.78E-04  6.92E-03  0.62920
   1006.   9.940  1.32E-06  1.33E-04  4.17E-06  4.22E-04  0.00E+00  0.00E+00  5.48E-06  5.55E-04  6.93E-03  0.60302
   1008.   9.921  1.34E-06  1.36E-04  4.03E-06  4.10E-04  0.00E+00  0.00E+00  5.37E-06  5.46E-04  6.94E-03  0.58584
   1010.   9.901  1.58E-06  1.62E-04  3.52E-06  3.59E-04  0.00E+00  0.00E+00  5.10E-06  5.20E-04  6.95E-03  0.51337
   1012.   9.881  1.50E-06  1.53E-04  3.41E-06  3.50E-04  0.00E+00  0.00E+00  4.91E-06  5.03E-04  6.96E-03  0.50039
   1014.   9.862  1.71E-06  1.76E-04  2.92E-06  3.00E-04  0.00E+00  0.00E+00  4.63E-06  4.76E-04  6.97E-03  0.42959
   1016.   9.843  1.51E-06  1.56E-04  3.09E-06  3.19E-04  0.00E+00  0.00E+00  4.60E-06  4.75E-04  6.98E-03  0.45746
   1018.   9.823  1.70E-06  1.76E-04  2.57E-06  2.66E-04  0.00E+00  0.00E+00  4.26E-06  4.42E-04  6.99E-03  0.38113
   1020.   9.804  1.56E-06  1.63E-04  2.60E-06  2.70E-04  0.00E+00  0.00E+00  4.16E-06  4.33E-04  7.00E-03  0.38766
   1022.   9.785  1.59E-06  1.66E-04  2.39E-06  2.50E-04  0.00E+00  0.00E+00  3.98E-06  4.16E-04  7.01E-03  0.35883
   1024.   9.766  1.58E-06  1.66E-04  2.31E-06  2.42E-04  0.00E+00  0.00E+00  3.89E-06  4.08E-04  7.01E-03  0.34733
   1026.   9.747  1.55E-06  1.63E-04  2.37E-06  2.50E-04  0.00E+00  0.00E+00  3.92E-06  4.13E-04  7.02E-03  0.35862
   1028.   9.728  1.74E-06  1.84E-04  2.06E-06  2.17E-04  0.00E+00  0.00E+00  3.80E-06  4.01E-04  7.03E-03  0.31248
   1030.   9.709  1.70E-06  1.80E-04  1.98E-06  2.10E-04  0.00E+00  0.00E+00  3.68E-06  3.90E-04  7.04E-03  0.30206
   1032.   9.690  1.58E-06  1.68E-04  2.21E-06  2.36E-04  0.00E+00  0.00E+00  3.79E-06  4.04E-04  7.04E-03  0.33935
   1034.   9.671  1.55E-06  1.65E-04  2.19E-06  2.34E-04  0.00E+00  0.00E+00  3.73E-06  3.99E-04  7.05E-03  0.33644
   1036.   9.653  1.58E-06  1.70E-04  1.97E-06  2.11E-04  0.00E+00  0.00E+00  3.55E-06  3.81E-04  7.06E-03  0.30453
   1038.   9.634  1.64E-06  1.77E-04  1.77E-06  1.91E-04  0.00E+00  0.00E+00  3.42E-06  3.68E-04  7.07E-03  0.27552
   1040.   9.615  1.67E-06  1.81E-04  1.53E-06  1.66E-04  0.00E+00  0.00E+00  3.21E-06  3.47E-04  7.07E-03  0.23919
   1042.   9.597  1.37E-06  1.49E-04  2.89E-06  3.14E-04  0.00E+00  0.00E+00  4.26E-06  4.63E-04  7.08E-03  0.45329
   1044.   9.579  1.13E-06  1.23E-04  4.08E-06  4.44E-04  0.00E+00  0.00E+00  5.21E-06  5.68E-04  7.09E-03  0.64167
   1046.   9.560  1.36E-06  1.48E-04  2.68E-06  2.93E-04  0.00E+00  0.00E+00  4.04E-06  4.42E-04  7.10E-03  0.42380
   1048.   9.542  1.56E-06  1.71E-04  1.80E-06  1.98E-04  0.00E+00  0.00E+00  3.36E-06  3.69E-04  7.11E-03  0.28633
   1050.   9.524  1.62E-06  1.79E-04  1.63E-06  1.80E-04  0.00E+00  0.00E+00  3.25E-06  3.59E-04  7.11E-03  0.26044
   1052.   9.506  1.64E-06  1.81E-04  1.39E-06  1.54E-04  0.00E+00  0.00E+00  3.03E-06  3.35E-04  7.12E-03  0.22265
   1054.   9.488  1.61E-06  1.79E-04  1.40E-06  1.55E-04  0.00E+00  0.00E+00  3.01E-06  3.34E-04  7.12E-03  0.22477
   1056.   9.470  1.65E-06  1.84E-04  1.34E-06  1.49E-04  0.00E+00  0.00E+00  2.99E-06  3.34E-04  7.13E-03  0.21677
   1058.   9.452  1.56E-06  1.75E-04  1.67E-06  1.87E-04  0.00E+00  0.00E+00  3.24E-06  3.62E-04  7.14E-03  0.27226
   1060.   9.434  1.57E-06  1.76E-04  1.94E-06  2.17E-04  0.00E+00  0.00E+00  3.51E-06  3.94E-04  7.14E-03  0.31613
   1062.   9.416  1.48E-06  1.67E-04  2.29E-06  2.58E-04  0.00E+00  0.00E+00  3.77E-06  4.25E-04  7.15E-03  0.37515
   1064.   9.398  1.35E-06  1.53E-04  2.98E-06  3.38E-04  0.00E+00  0.00E+00  4.33E-06  4.90E-04  7.16E-03  0.49196
   1066.   9.381  1.76E-06  2.00E-04  2.90E-06  3.29E-04  0.00E+00  0.00E+00  4.66E-06  5.29E-04  7.17E-03  0.47997
   1068.   9.363  1.10E-06  1.25E-04  4.17E-06  4.76E-04  0.00E+00  0.00E+00  5.27E-06  6.01E-04  7.18E-03  0.69409
   1070.   9.346  9.42E-07  1.08E-04  4.63E-06  5.30E-04  0.00E+00  0.00E+00  5.57E-06  6.38E-04  7.19E-03  0.77454
   1072.   9.328  9.73E-07  1.12E-04  4.72E-06  5.43E-04  0.00E+00  0.00E+00  5.70E-06  6.55E-04  7.20E-03  0.79319
   1074.   9.311  1.46E-06  1.68E-04  4.04E-06  4.66E-04  0.00E+00  0.00E+00  5.49E-06  6.34E-04  7.21E-03  0.68166
   1076.   9.294  1.01E-06  1.16E-04  4.61E-06  5.34E-04  0.00E+00  0.00E+00  5.62E-06  6.50E-04  7.23E-03  0.78204
   1078.   9.276  8.85E-07  1.03E-04  4.77E-06  5.54E-04  0.00E+00  0.00E+00  5.66E-06  6.57E-04  7.24E-03  0.81279
   1080.   9.259  9.07E-07  1.06E-04  4.67E-06  5.45E-04  0.00E+00  0.00E+00  5.58E-06  6.50E-04  7.25E-03  0.79922
   1082.   9.242  9.10E-07  1.07E-04  4.64E-06  5.43E-04  0.00E+00  0.00E+00  5.55E-06  6.49E-04  7.26E-03  0.79728
   1084.   9.225  9.47E-07  1.11E-04  4.60E-06  5.40E-04  0.00E+00  0.00E+00  5.55E-06  6.52E-04  7.27E-03  0.79451
   1086.   9.208  9.56E-07  1.13E-04  4.53E-06  5.35E-04  0.00E+00  0.00E+00  5.49E-06  6.47E-04  7.28E-03  0.78709
   1088.   9.191  9.25E-07  1.10E-04  4.53E-06  5.36E-04  0.00E+00  0.00E+00  5.45E-06  6.46E-04  7.29E-03  0.78997
   1090.   9.174  1.14E-06  1.35E-04  4.24E-06  5.03E-04  0.00E+00  0.00E+00  5.38E-06  6.39E-04  7.30E-03  0.74263
   1092.   9.158  1.19E-06  1.42E-04  4.17E-06  4.97E-04  0.00E+00  0.00E+00  5.35E-06  6.38E-04  7.31E-03  0.73387
   1094.   9.141  8.84E-07  1.06E-04  4.50E-06  5.38E-04  0.00E+00  0.00E+00  5.38E-06  6.44E-04  7.32E-03  0.79608
   1096.   9.124  8.72E-07  1.05E-04  4.52E-06  5.43E-04  0.00E+00  0.00E+00  5.39E-06  6.48E-04  7.33E-03  0.80372
   1098.   9.107  9.10E-07  1.10E-04  4.44E-06  5.35E-04  0.00E+00  0.00E+00  5.35E-06  6.45E-04  7.35E-03  0.79307
1                                             RADIANCE(WATTS/CM2-STER-XXX)
0  FREQ   WAVLEN    PATH THERMAL      SURFACE EMISSION    SURFACE REFLECTED     TOTAL RADIANCE   INTEGRAL    TOTAL
  (CM-1) (MICRN)    (CM-1)   (MICRN)    (CM-1)   (MICRN)    (CM-1)   (MICRN)    (CM-1)   (MICRN)    (CM-1)   TRANS

   1100.   9.091  1.58E-06  1.91E-04  3.50E-06  4.23E-04  0.00E+00  0.00E+00  5.08E-06  6.15E-04  7.36E-03  0.62824
   1102.   9.074  1.22E-06  1.48E-04  3.95E-06  4.80E-04  0.00E+00  0.00E+00  5.17E-06  6.28E-04  7.37E-03  0.71307
   1104.   9.058  8.91E-07  1.09E-04  4.39E-06  5.36E-04  0.00E+00  0.00E+00  5.29E-06  6.44E-04  7.38E-03  0.79672
   1106.   9.042  1.34E-06  1.64E-04  3.77E-06  4.61E-04  0.00E+00  0.00E+00  5.11E-06  6.25E-04  7.39E-03  0.68608
   1108.   9.025  1.23E-06  1.51E-04  3.87E-06  4.75E-04  0.00E+00  0.00E+00  5.10E-06  6.26E-04  7.40E-03  0.70814
   1110.   9.009  9.55E-07  1.18E-04  4.24E-06  5.22E-04  0.00E+00  0.00E+00  5.19E-06  6.40E-04  7.41E-03  0.77964
   1112.   8.993  1.55E-06  1.91E-04  3.33E-06  4.12E-04  0.00E+00  0.00E+00  4.88E-06  6.03E-04  7.42E-03  0.61632
   1114.   8.977  8.63E-07  1.07E-04  4.27E-06  5.30E-04  0.00E+00  0.00E+00  5.13E-06  6.37E-04  7.43E-03  0.79290
   1116.   8.961  8.44E-07  1.05E-04  4.27E-06  5.32E-04  0.00E+00  0.00E+00  5.11E-06  6.37E-04  7.44E-03  0.79715
   1118.   8.945  9.45E-07  1.18E-04  4.07E-06  5.09E-04  0.00E+00  0.00E+00  5.02E-06  6.27E-04  7.45E-03  0.76408
   1120.   8.929  1.31E-06  1.64E-04  3.53E-06  4.43E-04  0.00E+00  0.00E+00  4.84E-06  6.08E-04  7.46E-03  0.66577
   1122.   8.913  1.38E-06  1.73E-04  3.40E-06  4.28E-04  0.00E+00  0.00E+00  4.78E-06  6.01E-04  7.47E-03  0.64468
   1124.   8.897  8.46E-07  1.07E-04  4.10E-06  5.19E-04  0.00E+00  0.00E+00  4.95E-06  6.26E-04  7.48E-03  0.78148
   1126.   8.881  8.10E-07  1.03E-04  4.13E-06  5.24E-04  0.00E+00  0.00E+00  4.94E-06  6.27E-04  7.49E-03  0.79087
   1128.   8.865  7.95E-07  1.01E-04  4.15E-06  5.28E-04  0.00E+00  0.00E+00  4.94E-06  6.29E-04  7.50E-03  0.79757
   1130.   8.850  8.20E-07  1.05E-04  4.09E-06  5.22E-04  0.00E+00  0.00E+00  4.91E-06  6.27E-04  7.51E-03  0.78993
   1132.   8.834  8.32E-07  1.07E-04  4.07E-06  5.22E-04  0.00E+00  0.00E+00  4.90E-06  6.28E-04  7.52E-03  0.79044
   1134.   8.818  1.20E-06  1.54E-04  3.58E-06  4.60E-04  0.00E+00  0.00E+00  4.78E-06  6.14E-04  7.53E-03  0.69867
   1136.   8.803  2.35E-06  3.03E-04  1.68E-06  2.17E-04  0.00E+00  0.00E+00  4.03E-06  5.20E-04  7.53E-03  0.32962
   1138.   8.787  1.38E-06  1.79E-04  3.25E-06  4.21E-04  0.00E+00  0.00E+00  4.63E-06  6.00E-04  7.54E-03  0.64177
   1140.   8.772  8.26E-07  1.07E-04  4.00E-06  5.20E-04  0.00E+00  0.00E+00  4.83E-06  6.27E-04  7.55E-03  0.79266
   1142.   8.757  8.50E-07  1.11E-04  3.94E-06  5.13E-04  0.00E+00  0.00E+00  4.79E-06  6.24E-04  7.56E-03  0.78365
   1144.   8.741  7.91E-07  1.04E-04  3.97E-06  5.19E-04  0.00E+00  0.00E+00  4.76E-06  6.23E-04  7.57E-03  0.79416
   1146.   8.726  8.02E-07  1.05E-04  3.92E-06  5.15E-04  0.00E+00  0.00E+00  4.73E-06  6.21E-04  7.58E-03  0.78902
   1148.   8.711  1.15E-06  1.52E-04  3.38E-06  4.46E-04  0.00E+00  0.00E+00  4.53E-06  5.97E-04  7.59E-03  0.68318
   1150.   8.696  1.31E-06  1.73E-04  3.16E-06  4.17E-04  0.00E+00  0.00E+00  4.46E-06  5.90E-04  7.60E-03  0.64125
   1152.   8.681  1.64E-06  2.18E-04  2.65E-06  3.52E-04  0.00E+00  0.00E+00  4.29E-06  5.69E-04  7.61E-03  0.54089
   1154.   8.666  8.96E-07  1.19E-04  3.67E-06  4.89E-04  0.00E+00  0.00E+00  4.57E-06  6.09E-04  7.62E-03  0.75397
   1156.   8.651  7.89E-07  1.05E-04  3.77E-06  5.04E-04  0.00E+00  0.00E+00  4.56E-06  6.09E-04  7.63E-03  0.77749
   1158.   8.636  7.64E-07  1.02E-04  3.78E-06  5.07E-04  0.00E+00  0.00E+00  4.55E-06  6.10E-04  7.64E-03  0.78433
   1160.   8.621  7.56E-07  1.02E-04  3.77E-06  5.07E-04  0.00E+00  0.00E+00  4.52E-06  6.09E-04  7.64E-03  0.78484
   1162.   8.606  7.58E-07  1.02E-04  3.76E-06  5.08E-04  0.00E+00  0.00E+00  4.52E-06  6.10E-04  7.65E-03  0.78790
   1164.   8.591  1.21E-06  1.64E-04  3.10E-06  4.20E-04  0.00E+00  0.00E+00  4.31E-06  5.83E-04  7.66E-03  0.65180
   1166.   8.576  1.61E-06  2.18E-04  2.53E-06  3.44E-04  0.00E+00  0.00E+00  4.13E-06  5.62E-04  7.67E-03  0.53514
   1168.   8.562  7.13E-07  9.72E-05  3.82E-06  5.21E-04  0.00E+00  0.00E+00  4.53E-06  6.18E-04  7.68E-03  0.81225
   1170.   8.547  7.64E-07  1.05E-04  3.72E-06  5.09E-04  0.00E+00  0.00E+00  4.48E-06  6.13E-04  7.69E-03  0.79448
   1172.   8.532  9.06E-07  1.24E-04  3.47E-06  4.77E-04  0.00E+00  0.00E+00  4.38E-06  6.02E-04  7.70E-03  0.74641
   1174.   8.518  2.23E-06  3.07E-04  1.41E-06  1.95E-04  0.00E+00  0.00E+00  3.64E-06  5.02E-04  7.70E-03  0.30452
   1176.   8.503  1.47E-06  2.03E-04  2.45E-06  3.39E-04  0.00E+00  0.00E+00  3.92E-06  5.42E-04  7.71E-03  0.53235
   1178.   8.489  8.26E-07  1.15E-04  3.47E-06  4.82E-04  0.00E+00  0.00E+00  4.30E-06  5.96E-04  7.72E-03  0.75776
   1180.   8.475  8.34E-07  1.16E-04  3.45E-06  4.80E-04  0.00E+00  0.00E+00  4.28E-06  5.96E-04  7.73E-03  0.75590
   1182.   8.460  7.55E-07  1.06E-04  3.53E-06  4.93E-04  0.00E+00  0.00E+00  4.28E-06  5.99E-04  7.74E-03  0.77819
   1184.   8.446  8.05E-07  1.13E-04  3.43E-06  4.81E-04  0.00E+00  0.00E+00  4.24E-06  5.94E-04  7.75E-03  0.76027
   1186.   8.432  1.38E-06  1.94E-04  2.50E-06  3.51E-04  0.00E+00  0.00E+00  3.87E-06  5.45E-04  7.75E-03  0.55591
   1188.   8.418  1.88E-06  2.65E-04  1.83E-06  2.58E-04  0.00E+00  0.00E+00  3.70E-06  5.23E-04  7.76E-03  0.40951
   1190.   8.403  8.53E-07  1.21E-04  3.33E-06  4.71E-04  0.00E+00  0.00E+00  4.18E-06  5.92E-04  7.77E-03  0.74918
   1192.   8.389  7.44E-07  1.06E-04  3.45E-06  4.90E-04  0.00E+00  0.00E+00  4.19E-06  5.96E-04  7.78E-03  0.78073
   1194.   8.375  7.26E-07  1.03E-04  3.48E-06  4.95E-04  0.00E+00  0.00E+00  4.20E-06  5.99E-04  7.79E-03  0.79071
   1196.   8.361  7.43E-07  1.06E-04  3.45E-06  4.93E-04  0.00E+00  0.00E+00  4.19E-06  5.99E-04  7.79E-03  0.78841
   1198.   8.347  1.71E-06  2.45E-04  1.86E-06  2.67E-04  0.00E+00  0.00E+00  3.57E-06  5.12E-04  7.80E-03  0.42689
1                                             RADIANCE(WATTS/CM2-STER-XXX)
0  FREQ   WAVLEN    PATH THERMAL      SURFACE EMISSION    SURFACE REFLECTED     TOTAL RADIANCE   INTEGRAL    TOTAL
  (CM-1) (MICRN)    (CM-1)   (MICRN)    (CM-1)   (MICRN)    (CM-1)   (MICRN)    (CM-1)   (MICRN)    (CM-1)   TRANS

   1200.   8.333  9.20E-07  1.32E-04  3.18E-06  4.58E-04  0.00E+00  0.00E+00  4.10E-06  5.90E-04  7.81E-03  0.73469
   1202.   8.319  5.73E-07  8.28E-05  3.58E-06  5.18E-04  0.00E+00  0.00E+00  4.16E-06  6.01E-04  7.82E-03  0.83289
   1204.   8.306  5.26E-07  7.63E-05  3.63E-06  5.27E-04  0.00E+00  0.00E+00  4.16E-06  6.03E-04  7.83E-03  0.84855
   1206.   8.292  8.23E-07  1.20E-04  3.22E-06  4.68E-04  0.00E+00  0.00E+00  4.04E-06  5.88E-04  7.83E-03  0.75643
   1208.   8.278  6.47E-07  9.44E-05  3.44E-06  5.03E-04  0.00E+00  0.00E+00  4.09E-06  5.97E-04  7.84E-03  0.81291
   1210.   8.264  1.17E-06  1.71E-04  2.61E-06  3.81E-04  0.00E+00  0.00E+00  3.77E-06  5.52E-04  7.85E-03  0.61798
   1212.   8.251  2.22E-06  3.26E-04  7.48E-07  1.10E-04  0.00E+00  0.00E+00  2.97E-06  4.36E-04  7.86E-03  0.17844
   1214.   8.237  1.31E-06  1.93E-04  2.52E-06  3.71E-04  0.00E+00  0.00E+00  3.82E-06  5.63E-04  7.86E-03  0.60380
   1216.   8.224  8.39E-07  1.24E-04  3.04E-06  4.50E-04  0.00E+00  0.00E+00  3.88E-06  5.74E-04  7.87E-03  0.73439
   1218.   8.210  1.40E-06  2.07E-04  2.17E-06  3.22E-04  0.00E+00  0.00E+00  3.56E-06  5.29E-04  7.88E-03  0.52552
   1220.   8.197  1.40E-06  2.09E-04  2.03E-06  3.02E-04  0.00E+00  0.00E+00  3.43E-06  5.10E-04  7.89E-03  0.49476
   1222.   8.183  1.09E-06  1.63E-04  2.55E-06  3.81E-04  0.00E+00  0.00E+00  3.64E-06  5.44E-04  7.89E-03  0.62493
   1224.   8.170  1.48E-06  2.22E-04  1.85E-06  2.77E-04  0.00E+00  0.00E+00  3.33E-06  4.99E-04  7.90E-03  0.45542
   1226.   8.157  1.96E-06  2.94E-04  1.07E-06  1.61E-04  0.00E+00  0.00E+00  3.03E-06  4.55E-04  7.91E-03  0.26493
   1228.   8.143  8.28E-07  1.25E-04  2.89E-06  4.35E-04  0.00E+00  0.00E+00  3.71E-06  5.60E-04  7.91E-03  0.71841
   1230.   8.130  8.22E-07  1.24E-04  2.71E-06  4.10E-04  0.00E+00  0.00E+00  3.53E-06  5.35E-04  7.92E-03  0.67900
   1232.   8.117  5.27E-07  8.00E-05  3.28E-06  4.98E-04  0.00E+00  0.00E+00  3.81E-06  5.78E-04  7.93E-03  0.82587
   1234.   8.104  5.36E-07  8.17E-05  3.25E-06  4.95E-04  0.00E+00  0.00E+00  3.78E-06  5.76E-04  7.94E-03  0.82203
   1236.   8.091  1.04E-06  1.59E-04  2.21E-06  3.38E-04  0.00E+00  0.00E+00  3.26E-06  4.98E-04  7.94E-03  0.56312
   1238.   8.078  1.16E-06  1.78E-04  2.11E-06  3.23E-04  0.00E+00  0.00E+00  3.27E-06  5.02E-04  7.95E-03  0.53965
   1240.   8.065  1.25E-06  1.92E-04  2.07E-06  3.18E-04  0.00E+00  0.00E+00  3.31E-06  5.10E-04  7.96E-03  0.53182
   1242.   8.052  1.28E-06  1.97E-04  1.83E-06  2.83E-04  0.00E+00  0.00E+00  3.11E-06  4.79E-04  7.96E-03  0.47378
   1244.   8.039  1.94E-06  3.01E-04  4.84E-07  7.50E-05  0.00E+00  0.00E+00  2.43E-06  3.76E-04  7.97E-03  0.12589
   1246.   8.026  1.37E-06  2.13E-04  1.51E-06  2.34E-04  0.00E+00  0.00E+00  2.88E-06  4.47E-04  7.97E-03  0.39448
   1248.   8.013  1.19E-06  1.85E-04  1.66E-06  2.59E-04  0.00E+00  0.00E+00  2.85E-06  4.44E-04  7.98E-03  0.43734
   1250.   8.000  1.11E-06  1.73E-04  1.92E-06  3.01E-04  0.00E+00  0.00E+00  3.03E-06  4.74E-04  7.98E-03  0.50865
   1252.   7.987  1.40E-06  2.19E-04  1.52E-06  2.39E-04  0.00E+00  0.00E+00  2.92E-06  4.58E-04  7.99E-03  0.40484
   1254.   7.974  1.33E-06  2.10E-04  1.03E-06  1.62E-04  0.00E+00  0.00E+00  2.37E-06  3.72E-04  7.99E-03  0.27551
   1256.   7.962  1.24E-06  1.95E-04  1.54E-06  2.43E-04  0.00E+00  0.00E+00  2.78E-06  4.38E-04  8.00E-03  0.41319
   1258.   7.949  1.62E-06  2.57E-04  9.57E-07  1.51E-04  0.00E+00  0.00E+00  2.58E-06  4.08E-04  8.01E-03  0.25843
   1260.   7.937  1.49E-06  2.36E-04  6.42E-08  1.02E-05  0.00E+00  0.00E+00  1.55E-06  2.47E-04  8.01E-03  0.01739
   1262.   7.924  1.46E-06  2.33E-04  4.28E-07  6.82E-05  0.00E+00  0.00E+00  1.89E-06  3.01E-04  8.01E-03  0.11715
   1264.   7.911  1.55E-06  2.48E-04  5.33E-07  8.52E-05  0.00E+00  0.00E+00  2.09E-06  3.33E-04  8.02E-03  0.14631
   1266.   7.899  1.57E-06  2.52E-04  1.57E-07  2.52E-05  0.00E+00  0.00E+00  1.73E-06  2.78E-04  8.02E-03  0.04339
   1268.   7.886  1.34E-06  2.16E-04  2.98E-08  4.79E-06  0.00E+00  0.00E+00  1.37E-06  2.20E-04  8.02E-03  0.00826
   1270.   7.874  1.40E-06  2.26E-04  1.76E-08  2.84E-06  0.00E+00  0.00E+00  1.42E-06  2.29E-04  8.03E-03  0.00492
   1272.   7.862  1.29E-06  2.08E-04  5.23E-08  8.46E-06  0.00E+00  0.00E+00  1.34E-06  2.17E-04  8.03E-03  0.01472
   1274.   7.849  1.44E-06  2.33E-04  4.29E-07  6.96E-05  0.00E+00  0.00E+00  1.87E-06  3.03E-04  8.03E-03  0.12117
   1276.   7.837  1.15E-06  1.87E-04  6.87E-07  1.12E-04  0.00E+00  0.00E+00  1.83E-06  2.99E-04  8.04E-03  0.19516
   1278.   7.825  1.14E-06  1.87E-04  1.00E-06  1.64E-04  0.00E+00  0.00E+00  2.15E-06  3.50E-04  8.04E-03  0.28675
   1280.   7.813  1.52E-06  2.49E-04  4.66E-07  7.63E-05  0.00E+00  0.00E+00  1.99E-06  3.26E-04  8.04E-03  0.13355
   1282.   7.800  1.29E-06  2.12E-04  4.07E-07  6.69E-05  0.00E+00  0.00E+00  1.70E-06  2.79E-04  8.05E-03  0.11757
   1284.   7.788  1.50E-06  2.47E-04  5.20E-07  8.58E-05  0.00E+00  0.00E+00  2.02E-06  3.32E-04  8.05E-03  0.15122
   1286.   7.776  1.61E-06  2.67E-04  5.76E-07  9.53E-05  0.00E+00  0.00E+00  2.19E-06  3.62E-04  8.06E-03  0.16805
   1288.   7.764  1.20E-06  1.99E-04  1.98E-08  3.29E-06  0.00E+00  0.00E+00  1.22E-06  2.02E-04  8.06E-03  0.00584
   1290.   7.752  1.43E-06  2.38E-04  2.55E-07  4.24E-05  0.00E+00  0.00E+00  1.69E-06  2.81E-04  8.06E-03  0.07521
   1292.   7.740  1.32E-06  2.21E-04  5.02E-07  8.38E-05  0.00E+00  0.00E+00  1.83E-06  3.05E-04  8.06E-03  0.14918
   1294.   7.728  1.15E-06  1.93E-04  3.31E-07  5.53E-05  0.00E+00  0.00E+00  1.48E-06  2.49E-04  8.07E-03  0.09868
   1296.   7.716  1.24E-06  2.07E-04  8.97E-08  1.51E-05  0.00E+00  0.00E+00  1.33E-06  2.23E-04  8.07E-03  0.02690
   1298.   7.704  1.10E-06  1.85E-04  2.47E-07  4.17E-05  0.00E+00  0.00E+00  1.35E-06  2.27E-04  8.07E-03  0.07484
1                                             RADIANCE(WATTS/CM2-STER-XXX)
0  FREQ   WAVLEN    PATH THERMAL      SURFACE EMISSION    SURFACE REFLECTED     TOTAL RADIANCE   INTEGRAL    TOTAL
  (CM-1) (MICRN)    (CM-1)   (MICRN)    (CM-1)   (MICRN)    (CM-1)   (MICRN)    (CM-1)   (MICRN)    (CM-1)   TRANS

   1300.   7.692  1.05E-06  1.78E-04  3.20E-07  5.40E-05  0.00E+00  0.00E+00  1.37E-06  2.32E-04  8.08E-03  0.09702
   1302.   7.680  9.47E-07  1.60E-04  1.68E-07  2.85E-05  0.00E+00  0.00E+00  1.11E-06  1.89E-04  8.08E-03  0.05121
   1304.   7.669  7.79E-07  1.32E-04  4.52E-08  7.69E-06  0.00E+00  0.00E+00  8.24E-07  1.40E-04  8.08E-03  0.01387
   1306.   7.657  8.31E-07  1.42E-04  4.47E-08  7.62E-06  0.00E+00  0.00E+00  8.75E-07  1.49E-04  8.08E-03  0.01384
   1308.   7.645  1.40E-06  2.39E-04  6.04E-08  1.03E-05  0.00E+00  0.00E+00  1.46E-06  2.50E-04  8.08E-03  0.01874
   1310.   7.634  1.62E-06  2.78E-04  2.28E-07  3.92E-05  0.00E+00  0.00E+00  1.85E-06  3.17E-04  8.09E-03  0.07131
   1312.   7.622  1.28E-06  2.21E-04  3.29E-08  5.66E-06  0.00E+00  0.00E+00  1.32E-06  2.26E-04  8.09E-03  0.01031
   1314.   7.610  1.22E-06  2.10E-04  8.91E-10  1.54E-07  0.00E+00  0.00E+00  1.22E-06  2.10E-04  8.09E-03  0.00028
   1316.   7.599  1.31E-06  2.27E-04  8.50E-10  1.47E-07  0.00E+00  0.00E+00  1.31E-06  2.27E-04  8.10E-03  0.00027
   1318.   7.587  1.10E-06  1.92E-04  1.24E-10  2.15E-08  0.00E+00  0.00E+00  1.10E-06  1.92E-04  8.10E-03  0.00004
   1320.   7.576  1.14E-06  1.99E-04  2.31E-10  4.02E-08  0.00E+00  0.00E+00  1.14E-06  1.99E-04  8.10E-03  0.00007
   1322.   7.564  1.39E-06  2.43E-04  6.75E-08  1.18E-05  0.00E+00  0.00E+00  1.46E-06  2.55E-04  8.10E-03  0.02185
   1324.   7.553  1.71E-06  3.00E-04  2.97E-07  5.21E-05  0.00E+00  0.00E+00  2.01E-06  3.52E-04  8.11E-03  0.09674
   1326.   7.541  1.50E-06  2.64E-04  3.78E-07  6.64E-05  0.00E+00  0.00E+00  1.88E-06  3.30E-04  8.11E-03  0.12334
   1328.   7.530  1.49E-06  2.63E-04  1.49E-07  2.63E-05  0.00E+00  0.00E+00  1.64E-06  2.90E-04  8.11E-03  0.04907
   1330.   7.519  1.62E-06  2.86E-04  2.81E-07  4.98E-05  0.00E+00  0.00E+00  1.90E-06  3.36E-04  8.12E-03  0.09319
   1332.   7.508  1.23E-06  2.19E-04  2.47E-07  4.39E-05  0.00E+00  0.00E+00  1.48E-06  2.63E-04  8.12E-03  0.08205
   1334.   7.496  1.55E-06  2.76E-04  1.16E-07  2.06E-05  0.00E+00  0.00E+00  1.66E-06  2.96E-04  8.12E-03  0.03868
   1336.   7.485  1.31E-06  2.34E-04  1.93E-08  3.45E-06  0.00E+00  0.00E+00  1.33E-06  2.37E-04  8.13E-03  0.00649
   1338.   7.474  7.78E-07  1.39E-04  2.46E-13  4.40E-11  0.00E+00  0.00E+00  7.78E-07  1.39E-04  8.13E-03  0.00000
   1340.   7.463  7.56E-07  1.36E-04  4.60E-17  8.27E-15  0.00E+00  0.00E+00  7.56E-07  1.36E-04  8.13E-03  0.00000
   1342.   7.452  9.66E-07  1.74E-04  5.24E-09  9.44E-07  0.00E+00  0.00E+00  9.71E-07  1.75E-04  8.13E-03  0.00180
   1344.   7.440  1.50E-06  2.71E-04  1.04E-07  1.88E-05  0.00E+00  0.00E+00  1.61E-06  2.90E-04  8.14E-03  0.03585
   1346.   7.429  1.41E-06  2.56E-04  1.28E-07  2.31E-05  0.00E+00  0.00E+00  1.54E-06  2.79E-04  8.14E-03  0.04421
   1348.   7.418  1.09E-06  1.98E-04  2.51E-08  4.56E-06  0.00E+00  0.00E+00  1.11E-06  2.02E-04  8.14E-03  0.00873
   1350.   7.407  1.18E-06  2.14E-04  1.59E-08  2.91E-06  0.00E+00  0.00E+00  1.19E-06  2.17E-04  8.14E-03  0.00560
   1352.   7.396  1.32E-06  2.42E-04  6.18E-08  1.13E-05  0.00E+00  0.00E+00  1.38E-06  2.53E-04  8.15E-03  0.02178
   1354.   7.386  1.18E-06  2.17E-04  1.46E-08  2.67E-06  0.00E+00  0.00E+00  1.20E-06  2.20E-04  8.15E-03  0.00515
   1356.   7.375  1.15E-06  2.12E-04  1.17E-08  2.16E-06  0.00E+00  0.00E+00  1.16E-06  2.14E-04  8.15E-03  0.00420
   1358.   7.364  1.29E-06  2.37E-04  1.20E-08  2.22E-06  0.00E+00  0.00E+00  1.30E-06  2.39E-04  8.15E-03  0.00430
   1360.   7.353  1.12E-06  2.08E-04  8.20E-10  1.52E-07  0.00E+00  0.00E+00  1.12E-06  2.08E-04  8.16E-03  0.00030
   1362.   7.342  7.33E-07  1.36E-04  2.18E-14  4.04E-12  0.00E+00  0.00E+00  7.33E-07  1.36E-04  8.16E-03  0.00000
   1364.   7.331  8.47E-07  1.58E-04  2.67E-11  4.96E-09  0.00E+00  0.00E+00  8.47E-07  1.58E-04  8.16E-03  0.00001
   1366.   7.321  1.33E-06  2.48E-04  2.78E-09  5.19E-07  0.00E+00  0.00E+00  1.33E-06  2.49E-04  8.16E-03  0.00102
   1368.   7.310  1.01E-06  1.89E-04  1.25E-09  2.34E-07  0.00E+00  0.00E+00  1.01E-06  1.90E-04  8.16E-03  0.00046
   1370.   7.299  1.07E-06  2.00E-04  6.72E-11  1.26E-08  0.00E+00  0.00E+00  1.07E-06  2.00E-04  8.17E-03  0.00003
   1372.   7.289  9.84E-07  1.85E-04  4.48E-11  8.44E-09  0.00E+00  0.00E+00  9.84E-07  1.85E-04  8.17E-03  0.00002
   1374.   7.278  5.96E-07  1.12E-04  5.44E-16  1.03E-13  0.00E+00  0.00E+00  5.96E-07  1.12E-04  8.17E-03  0.00000
   1376.   7.267  8.07E-07  1.53E-04  3.32E-12  6.29E-10  0.00E+00  0.00E+00  8.07E-07  1.53E-04  8.17E-03  0.00000
   1378.   7.257  1.02E-06  1.93E-04  1.23E-11  2.34E-09  0.00E+00  0.00E+00  1.02E-06  1.93E-04  8.17E-03  0.00000
   1380.   7.246  1.08E-06  2.06E-04  1.74E-09  3.32E-07  0.00E+00  0.00E+00  1.09E-06  2.07E-04  8.17E-03  0.00067
   1382.   7.236  1.30E-06  2.48E-04  3.48E-09  6.64E-07  0.00E+00  0.00E+00  1.30E-06  2.49E-04  8.18E-03  0.00134
   1384.   7.225  1.23E-06  2.36E-04  9.68E-10  1.85E-07  0.00E+00  0.00E+00  1.23E-06  2.36E-04  8.18E-03  0.00037
   1386.   7.215  8.10E-07  1.56E-04  3.20E-12  6.15E-10  0.00E+00  0.00E+00  8.10E-07  1.56E-04  8.18E-03  0.00000
   1388.   7.205  6.12E-07  1.18E-04  7.77E-16  1.50E-13  0.00E+00  0.00E+00  6.12E-07  1.18E-04  8.18E-03  0.00000
   1390.   7.194  9.51E-07  1.84E-04  2.84E-13  5.49E-11  0.00E+00  0.00E+00  9.51E-07  1.84E-04  8.18E-03  0.00000
   1392.   7.184  9.17E-07  1.78E-04  7.10E-14  1.37E-11  0.00E+00  0.00E+00  9.17E-07  1.78E-04  8.19E-03  0.00000
   1394.   7.174  5.39E-07  1.05E-04  5.98E-17  1.16E-14  0.00E+00  0.00E+00  5.39E-07  1.05E-04  8.19E-03  0.00000
   1396.   7.163  5.96E-07  1.16E-04  8.48E-21  1.65E-18  0.00E+00  0.00E+00  5.96E-07  1.16E-04  8.19E-03  0.00000
   1398.   7.153  6.06E-07  1.19E-04  6.93E-14  1.35E-11  0.00E+00  0.00E+00  6.06E-07  1.19E-04  8.19E-03  0.00000
1                                             RADIANCE(WATTS/CM2-STER-XXX)
0  FREQ   WAVLEN    PATH THERMAL      SURFACE EMISSION    SURFACE REFLECTED     TOTAL RADIANCE   INTEGRAL    TOTAL
  (CM-1) (MICRN)    (CM-1)   (MICRN)    (CM-1)   (MICRN)    (CM-1)   (MICRN)    (CM-1)   (MICRN)    (CM-1)   TRANS

   1400.   7.143  5.98E-07  1.17E-04  6.93E-14  1.36E-11  0.00E+00  0.00E+00  5.98E-07  1.17E-04  8.19E-03  0.00000
   1402.   7.133  9.51E-07  1.87E-04  2.99E-13  5.88E-11  0.00E+00  0.00E+00  9.51E-07  1.87E-04  8.19E-03  0.00000
   1404.   7.123  6.63E-07  1.31E-04  2.14E-12  4.21E-10  0.00E+00  0.00E+00  6.63E-07  1.31E-04  8.19E-03  0.00000
   1406.   7.112  8.22E-07  1.62E-04  6.08E-12  1.20E-09  0.00E+00  0.00E+00  8.22E-07  1.62E-04  8.20E-03  0.00000
   1408.   7.102  1.09E-06  2.16E-04  1.06E-10  2.11E-08  0.00E+00  0.00E+00  1.09E-06  2.16E-04  8.20E-03  0.00004
   1410.   7.092  9.09E-07  1.81E-04  6.80E-12  1.35E-09  0.00E+00  0.00E+00  9.09E-07  1.81E-04  8.20E-03  0.00000
   1412.   7.082  8.22E-07  1.64E-04  9.41E-12  1.88E-09  0.00E+00  0.00E+00  8.22E-07  1.64E-04  8.20E-03  0.00000
   1414.   7.072  9.53E-07  1.91E-04  1.09E-11  2.17E-09  0.00E+00  0.00E+00  9.53E-07  1.91E-04  8.20E-03  0.00000
   1416.   7.062  6.56E-07  1.31E-04  1.09E-14  2.18E-12  0.00E+00  0.00E+00  6.56E-07  1.31E-04  8.20E-03  0.00000
   1418.   7.052  4.66E-07  9.36E-05  2.08E-29  4.17E-27  0.00E+00  0.00E+00  4.66E-07  9.36E-05  8.21E-03  0.00000
   1420.   7.042  4.01E-07  8.08E-05  2.80E-44  5.65E-42  0.00E+00  0.00E+00  4.01E-07  8.08E-05  8.21E-03  0.00000
   1422.   7.032  6.43E-07  1.30E-04  6.42E-23  1.30E-20  0.00E+00  0.00E+00  6.43E-07  1.30E-04  8.21E-03  0.00000
   1424.   7.022  5.00E-07  1.01E-04  5.80E-18  1.18E-15  0.00E+00  0.00E+00  5.00E-07  1.01E-04  8.21E-03  0.00000
   1426.   7.013  7.83E-07  1.59E-04  4.12E-15  8.38E-13  0.00E+00  0.00E+00  7.83E-07  1.59E-04  8.21E-03  0.00000
   1428.   7.003  6.73E-07  1.37E-04  2.60E-15  5.30E-13  0.00E+00  0.00E+00  6.73E-07  1.37E-04  8.21E-03  0.00000
   1430.   6.993  4.83E-07  9.88E-05  1.21E-14  2.48E-12  0.00E+00  0.00E+00  4.83E-07  9.88E-05  8.21E-03  0.00000
   1432.   6.983  6.41E-07  1.31E-04  3.67E-18  7.52E-16  0.00E+00  0.00E+00  6.41E-07  1.31E-04  8.21E-03  0.00000
   1434.   6.974  5.80E-07  1.19E-04  8.29E-20  1.70E-17  0.00E+00  0.00E+00  5.80E-07  1.19E-04  8.21E-03  0.00000
   1436.   6.964  3.77E-07  7.78E-05  7.60E-39  1.57E-36  0.00E+00  0.00E+00  3.77E-07  7.78E-05  8.22E-03  0.00000
   1438.   6.954  4.86E-07  1.01E-04  2.52E-23  5.21E-21  0.00E+00  0.00E+00  4.86E-07  1.01E-04  8.22E-03  0.00000
   1440.   6.944  7.33E-07  1.52E-04  2.64E-15  5.48E-13  0.00E+00  0.00E+00  7.33E-07  1.52E-04  8.22E-03  0.00000
   1442.   6.935  8.09E-07  1.68E-04  1.47E-13  3.06E-11  0.00E+00  0.00E+00  8.09E-07  1.68E-04  8.22E-03  0.00000
   1444.   6.925  7.98E-07  1.66E-04  2.14E-13  4.47E-11  0.00E+00  0.00E+00  7.98E-07  1.66E-04  8.22E-03  0.00000
   1446.   6.916  5.77E-07  1.21E-04  3.22E-16  6.74E-14  0.00E+00  0.00E+00  5.77E-07  1.21E-04  8.22E-03  0.00000
   1448.   6.906  4.38E-07  9.19E-05  6.68E-16  1.40E-13  0.00E+00  0.00E+00  4.38E-07  9.19E-05  8.22E-03  0.00000
   1450.   6.897  6.44E-07  1.35E-04  7.84E-19  1.65E-16  0.00E+00  0.00E+00  6.44E-07  1.35E-04  8.22E-03  0.00000
   1452.   6.887  5.20E-07  1.10E-04  1.44E-20  3.03E-18  0.00E+00  0.00E+00  5.20E-07  1.10E-04  8.23E-03  0.00000
   1454.   6.878  4.75E-07  1.00E-04  3.02E-31  6.39E-29  0.00E+00  0.00E+00  4.75E-07  1.00E-04  8.23E-03  0.00000
   1456.   6.868  2.93E-07  6.21E-05  0.00E+00  0.00E+00  0.00E+00  0.00E+00  2.93E-07  6.21E-05  8.23E-03  0.00000
   1458.   6.859  2.79E-07  5.92E-05  0.00E+00  0.00E+00  0.00E+00  0.00E+00  2.79E-07  5.92E-05  8.23E-03  0.00000
   1460.   6.849  4.13E-07  8.80E-05  3.75E-30  8.00E-28  0.00E+00  0.00E+00  4.13E-07  8.80E-05  8.23E-03  0.00000
   1462.   6.840  5.33E-07  1.14E-04  1.22E-26  2.61E-24  0.00E+00  0.00E+00  5.33E-07  1.14E-04  8.23E-03  0.00000
   1464.   6.831  3.45E-07  7.40E-05  4.27E-19  9.15E-17  0.00E+00  0.00E+00  3.45E-07  7.40E-05  8.23E-03  0.00000
   1466.   6.821  4.03E-07  8.65E-05  4.27E-19  9.18E-17  0.00E+00  0.00E+00  4.03E-07  8.65E-05  8.23E-03  0.00000
   1468.   6.812  5.31E-07  1.14E-04  1.13E-23  2.44E-21  0.00E+00  0.00E+00  5.31E-07  1.14E-04  8.23E-03  0.00000
   1470.   6.803  4.71E-07  1.02E-04  2.92E-24  6.31E-22  0.00E+00  0.00E+00  4.71E-07  1.02E-04  8.23E-03  0.00000
   1472.   6.793  2.87E-07  6.21E-05  1.91E-37  4.14E-35  0.00E+00  0.00E+00  2.87E-07  6.21E-05  8.23E-03  0.00000
   1474.   6.784  3.01E-07  6.53E-05  4.64E-41  1.01E-38  0.00E+00  0.00E+00  3.01E-07  6.53E-05  8.23E-03  0.00000
   1476.   6.775  3.33E-07  7.26E-05  2.74E-31  5.97E-29  0.00E+00  0.00E+00  3.33E-07  7.26E-05  8.23E-03  0.00000
   1478.   6.766  5.13E-07  1.12E-04  9.06E-21  1.98E-18  0.00E+00  0.00E+00  5.13E-07  1.12E-04  8.24E-03  0.00000
   1480.   6.757  5.19E-07  1.14E-04  1.46E-20  3.19E-18  0.00E+00  0.00E+00  5.19E-07  1.14E-04  8.24E-03  0.00000
   1482.   6.748  4.67E-07  1.02E-04  3.32E-20  7.29E-18  0.00E+00  0.00E+00  4.67E-07  1.02E-04  8.24E-03  0.00000
   1484.   6.739  5.40E-07  1.19E-04  3.54E-20  7.80E-18  0.00E+00  0.00E+00  5.40E-07  1.19E-04  8.24E-03  0.00000
   1486.   6.729  3.82E-07  8.44E-05  4.46E-25  9.85E-23  0.00E+00  0.00E+00  3.82E-07  8.44E-05  8.24E-03  0.00000
   1488.   6.720  2.92E-07  6.46E-05  1.43E-27  3.18E-25  0.00E+00  0.00E+00  2.92E-07  6.46E-05  8.24E-03  0.00000
   1490.   6.711  2.65E-07  5.89E-05  8.77E-38  1.95E-35  0.00E+00  0.00E+00  2.65E-07  5.89E-05  8.24E-03  0.00000
   1492.   6.702  3.82E-07  8.50E-05  9.10E-32  2.03E-29  0.00E+00  0.00E+00  3.82E-07  8.50E-05  8.24E-03  0.00000
   1494.   6.693  4.17E-07  9.30E-05  9.11E-32  2.03E-29  0.00E+00  0.00E+00  4.17E-07  9.30E-05  8.24E-03  0.00000
   1496.   6.684  2.66E-07  5.95E-05  5.59E-27  1.25E-24  0.00E+00  0.00E+00  2.66E-07  5.95E-05  8.24E-03  0.00000
   1498.   6.676  2.54E-07  5.71E-05  4.25E-35  9.54E-33  0.00E+00  0.00E+00  2.54E-07  5.71E-05  8.24E-03  0.00000
1                                             RADIANCE(WATTS/CM2-STER-XXX)
0  FREQ   WAVLEN    PATH THERMAL      SURFACE EMISSION    SURFACE REFLECTED     TOTAL RADIANCE   INTEGRAL    TOTAL
  (CM-1) (MICRN)    (CM-1)   (MICRN)    (CM-1)   (MICRN)    (CM-1)   (MICRN)    (CM-1)   (MICRN)    (CM-1)   TRANS

   1500.   6.667  3.12E-07  7.01E-05  4.25E-35  9.56E-33  0.00E+00  0.00E+00  3.12E-07  7.01E-05  8.24E-03  0.00000
0INTEGRATED ABSORPTION FROM  100 TO 1500 CM-1 =    983.30 CM-1
 AVERAGE TRANSMITTANCE =0.2976

0INTEGRATED RADIANCE =  8.244E-03 WATTS CM-2 STER-1
 MINIMUM RADIANCE    =  2.543E-07 WATTS CM-2 STER-1 (CM-1)-1 AT     1498.0 CM-1
 MAXIMUM RADIANCE    =  1.131E-05 WATTS CM-2 STER-1 (CM-1)-1 AT      630.0 CM-1
 BOUNDARY TEMPERATURE =     280.89 K
 BOUNDARY EMISSIVITY =       0.980
0 CARD 5 *****    0

