 *****  MODTRAN3 Version 1.3  12/1/95  *****
0 CARD 1  *****T   6    3    1    0    0    0    0    0    0    0    0    0   -1   0.000  -1.00
0 CARD 2  *****    2    0    0    0    0    0     0.000     0.000     0.000     0.000     0.000
0 CARD 3  *****    70.000     0.000   180.000     0.000     0.000     0.000    0
0 CARD 4  *****       100      1500         2         2
0 PROGRAM WILL COMPUTE RADIANCE
0 ATMOSPHERIC MODEL
          TEMPERATURE =    6     1976 U S STANDARD
          WATER VAPOR =    6     1976 U S STANDARD
          OZONE       =    6     1976 U S STANDARD
                      M4 =     6 M5 =     6 M6 =     6 MDEF =     1
0 AEROSOL MODEL
          REGIME                  AEROSOL TYPE             PROFILE                  SEASON

          BOUNDARY LAYER (0-2 KM) RURAL                      5.0 KM VIS AT SEA LEVEL
          TROPOSPHERE  (2-10KM)   TROPOSPHERIC             TROPOSPHERIC             SPRING-SUMMER
          STRATOSPHERE (10-30KM)  BACKGROUND STRATO        BACKGROUND STRATO        SPRING-SUMMER
          UPPER ATMOS (30-100KM)  METEORIC DUST            NORMAL
0 SLANT PATH TO SPACE
          H1    =     70.000 KM
          HMIN  =      0.000 KM
          ANGLE =    180.000 DEG
0 FREQUENCY RANGE
             IV1 =       100 CM-1  (    100.00 MICROMETERS)
             IV2 =      1500 CM-1  (      6.67 MICROMETERS)
             IDV =         2 CM-1
           IFWHM =         2 CM-1
1
  ATMOSPHERIC PROFILES

   I     Z       P       T        N2       CNTMSLF MOL SCAT     N-1     O3 (UV)  O2 (UV)
        (KM)    (MB)    (K)            (MOL/CM2 KM)   (-)       (-)  (ATM CM/KM) (ATM CM/KM)

   1     0.00 1013.000  288.2  8.243E-01 1.566E+20 9.475E-01 2.722E-04 2.519E-03 3.535E+04
   2     1.00  898.800  281.7  6.792E-01 7.926E+19 8.601E-01 2.471E-04 2.519E-03 3.079E+04
   3     2.00  795.000  275.2  5.568E-01 3.781E+19 7.788E-01 2.238E-04 2.519E-03 2.678E+04
   4     3.00  701.200  268.7  4.543E-01 1.457E+19 7.035E-01 2.022E-04 2.333E-03 2.327E+04
   5     4.00  616.600  262.2  3.690E-01 5.440E+18 6.340E-01 1.823E-04 2.146E-03 2.021E+04
   6     5.00  540.500  255.7  2.981E-01 1.842E+18 5.698E-01 1.638E-04 2.146E-03 1.753E+04
   7     6.00  472.200  249.2  2.396E-01 6.495E+17 5.108E-01 1.469E-04 2.099E-03 1.519E+04
   8     7.00  411.100  242.7  1.914E-01 1.983E+17 4.566E-01 1.313E-04 2.286E-03 1.315E+04
   9     8.00  356.500  236.2  1.520E-01 6.471E+16 4.069E-01 1.170E-04 2.426E-03 1.137E+04
  10     9.00  308.000  229.7  1.200E-01 9.518E+15 3.615E-01 1.040E-04 3.312E-03 9.815E+03
  11    10.00  265.000  223.3  9.396E-02 1.456E+15 3.199E-01 9.201E-05 4.198E-03 8.456E+03
  12    11.00  227.000  216.8  7.314E-02 3.023E+14 2.823E-01 8.118E-05 6.062E-03 7.276E+03
  13    12.00  194.000  216.7  5.347E-02 6.151E+13 2.413E-01 6.941E-05 7.464E-03 6.050E+03
  14    13.00  165.800  216.7  3.906E-02 1.456E+13 2.063E-01 5.932E-05 7.927E-03 5.045E+03
  15    14.00  141.700  216.7  2.853E-02 3.173E+12 1.763E-01 5.070E-05 8.861E-03 4.220E+03
  16    15.00  121.100  216.7  2.084E-02 1.649E+12 1.507E-01 4.333E-05 9.793E-03 3.540E+03
  17    16.00  103.500  216.7  1.522E-02 7.519E+11 1.288E-01 3.703E-05 1.120E-02 2.977E+03
  18    17.00   88.500  216.7  1.113E-02 5.223E+11 1.101E-01 3.166E-05 1.306E-02 2.510E+03
  19    18.00   75.650  216.7  8.131E-03 3.767E+11 9.411E-02 2.707E-05 1.493E-02 2.119E+03
  20    19.00   64.670  216.7  5.942E-03 2.789E+11 8.045E-02 2.314E-05 1.632E-02 1.792E+03
  21    20.00   55.290  216.7  4.343E-03 2.092E+11 6.878E-02 1.978E-05 1.773E-02 1.519E+03
  22    21.00   47.290  217.6  3.151E-03 1.576E+11 5.859E-02 1.685E-05 1.773E-02 1.283E+03
  23    22.00   40.470  218.6  2.287E-03 1.196E+11 4.991E-02 1.435E-05 1.819E-02 1.086E+03
  24    23.00   34.670  219.6  1.663E-03 9.288E+10 4.256E-02 1.224E-05 1.773E-02 9.203E+02
  25    24.00   29.720  220.6  1.211E-03 7.090E+10 3.632E-02 1.044E-05 1.679E-02 7.814E+02
  26    25.00   25.490  221.6  8.828E-04 5.473E+10 3.101E-02 8.918E-06 1.586E-02 6.643E+02
  27    30.00   11.970  226.5  1.863E-04 1.317E+10 1.425E-02 4.097E-06 9.330E-03 3.011E+02
  28    35.00    5.746  236.5  3.938E-05 2.994E+09 6.550E-03 1.884E-06 5.130E-03 1.375E+02
  29    40.00    2.871  250.4  8.771E-06 7.012E+08 3.091E-03 8.889E-07 2.255E-03 6.472E+01
  30    45.00    1.491  264.2  2.125E-06 1.837E+08 1.521E-03 4.375E-07 7.982E-04 3.182E+01
  31    50.00    0.798  270.7  5.795E-07 5.009E+07 7.945E-04 2.285E-07 2.461E-04 1.660E+01
  32    70.00    0.052  219.6  3.770E-09 1.462E+05 6.408E-05 1.843E-08 1.921E-06 1.338E+00
  33   100.00    0.000  195.1  1.795E-13 9.093E-02 4.422E-07 1.272E-10 1.767E-08 7.070E-03
1
  ATMOSPHERIC PROFILES

   I     Z       P       T      CNTMFRN     HNO3    AEROSOL 1 AEROSOL 2 AEROSOL 3 AEROSOL 4 AER1*RH   CIRRUS         RH
        (KM)    (MB)    (K)   MOL/CM2 KM ATM CM/KM   (-)       (-)       (-)       (-)       (-)       (-)      (PERCNT)

   1     0.00 1013.000  288.2  2.007E+22 4.738E-06 7.700E-01 0.000E+00 0.000E+00 0.000E+00 3.074E+00 0.000E+00 4.584E+01
   2     1.00  898.800  281.7  1.299E+22 5.126E-06 7.700E-01 0.000E+00 0.000E+00 0.000E+00 3.028E+00 0.000E+00 4.898E+01
   3     2.00  795.000  275.2  8.133E+21 5.397E-06 6.210E-02 0.000E+00 0.000E+00 0.000E+00 2.405E-01 0.000E+00 5.194E+01
   4     3.00  701.200  268.7  4.567E+21 5.565E-06 0.000E+00 3.460E-02 0.000E+00 0.000E+00 0.000E+00 0.000E+00 5.071E+01
   5     4.00  616.600  262.2  2.518E+21 5.623E-06 0.000E+00 1.850E-02 0.000E+00 0.000E+00 0.000E+00 0.000E+00 5.004E+01
   6     5.00  540.500  255.7  1.318E+21 5.556E-06 0.000E+00 9.310E-03 0.000E+00 0.000E+00 0.000E+00 0.000E+00 4.836E+01
   7     6.00  472.200  249.2  7.018E+20 5.670E-06 0.000E+00 7.710E-03 0.000E+00 0.000E+00 0.000E+00 0.000E+00 4.918E+01
   8     7.00  411.100  242.7  3.468E+20 5.754E-06 0.000E+00 6.230E-03 0.000E+00 0.000E+00 0.000E+00 0.000E+00 4.814E+01
   9     8.00  356.500  236.2  1.765E+20 5.656E-06 0.000E+00 3.370E-03 0.000E+00 0.000E+00 0.000E+00 0.000E+00 5.054E+01
  10     9.00  308.000  229.7  6.016E+19 5.531E-06 0.000E+00 1.820E-03 0.000E+00 0.000E+00 0.000E+00 0.000E+00 3.708E+01
  11    10.00  265.000  223.3  2.083E+19 5.567E-06 0.000E+00 1.140E-03 0.000E+00 0.000E+00 0.000E+00 0.000E+00 2.869E+01
  12    11.00  227.000  216.8  8.374E+18 5.702E-06 0.000E+00 0.000E+00 7.990E-04 0.000E+00 0.000E+00 0.000E+00 2.743E+01
  13    12.00  194.000  216.7  3.230E+18 5.816E-06 0.000E+00 0.000E+00 6.410E-04 0.000E+00 0.000E+00 0.000E+00 1.252E+01
  14    13.00  165.800  216.7  1.343E+18 5.693E-06 0.000E+00 0.000E+00 5.170E-04 0.000E+00 0.000E+00 0.000E+00 6.092E+00
  15    14.00  141.700  216.7  5.358E+17 5.870E-06 0.000E+00 0.000E+00 4.420E-04 0.000E+00 0.000E+00 0.000E+00 2.844E+00
  16    15.00  121.100  216.7  3.301E+17 6.809E-06 0.000E+00 0.000E+00 3.950E-04 0.000E+00 0.000E+00 0.000E+00 2.050E+00
  17    16.00  103.500  216.7  1.905E+17 9.489E-06 0.000E+00 0.000E+00 3.820E-04 0.000E+00 0.000E+00 0.000E+00 1.384E+00
  18    17.00   88.500  216.7  1.358E+17 1.442E-05 0.000E+00 0.000E+00 4.250E-04 0.000E+00 0.000E+00 0.000E+00 1.154E+00
  19    18.00   75.650  216.7  9.855E+16 1.986E-05 0.000E+00 0.000E+00 5.200E-04 0.000E+00 0.000E+00 0.000E+00 9.798E-01
  20    19.00   64.670  216.7  7.249E+16 2.550E-05 0.000E+00 0.000E+00 5.810E-04 0.000E+00 0.000E+00 0.000E+00 8.431E-01
  21    20.00   55.290  216.7  5.368E+16 2.889E-05 0.000E+00 0.000E+00 5.890E-04 0.000E+00 0.000E+00 0.000E+00 7.302E-01
  22    21.00   47.290  217.6  3.969E+16 2.894E-05 0.000E+00 0.000E+00 5.020E-04 0.000E+00 0.000E+00 0.000E+00 5.702E-01
  23    22.00   40.470  218.6  2.946E+16 2.725E-05 0.000E+00 0.000E+00 4.200E-04 0.000E+00 0.000E+00 0.000E+00 4.422E-01
  24    23.00   34.670  219.6  2.213E+16 2.443E-05 0.000E+00 0.000E+00 3.000E-04 0.000E+00 0.000E+00 0.000E+00 3.472E-01
  25    24.00   29.720  220.6  1.650E+16 2.121E-05 0.000E+00 0.000E+00 1.980E-04 0.000E+00 0.000E+00 0.000E+00 2.707E-01
  26    25.00   25.490  221.6  1.238E+16 1.740E-05 0.000E+00 0.000E+00 1.310E-04 0.000E+00 0.000E+00 0.000E+00 2.125E-01
  27    30.00   11.970  226.5  2.790E+15 5.328E-06 0.000E+00 0.000E+00 3.320E-05 0.000E+00 0.000E+00 0.000E+00 6.101E-02
  28    35.00    5.746  236.5  6.115E+14 1.074E-06 0.000E+00 0.000E+00 0.000E+00 1.640E-05 0.000E+00 0.000E+00 1.056E-02
  29    40.00    2.871  250.4  1.397E+14 1.647E-07 0.000E+00 0.000E+00 0.000E+00 7.990E-06 0.000E+00 0.000E+00 1.460E-03
  30    45.00    1.491  264.2  3.518E+13 1.841E-08 0.000E+00 0.000E+00 0.000E+00 4.010E-06 0.000E+00 0.000E+00 2.502E-04
  31    50.00    0.798  270.7  9.595E+12 4.409E-09 0.000E+00 0.000E+00 0.000E+00 2.100E-06 0.000E+00 0.000E+00 8.159E-05
  32    70.00    0.052  219.6  4.181E+10 2.095E-10 0.000E+00 0.000E+00 0.000E+00 1.600E-07 0.000E+00 0.000E+00 4.357E-04
  33   100.00    0.000  195.1  2.275E+05 1.207E-12 0.000E+00 0.000E+00 0.000E+00 9.310E-10 0.000E+00 0.000E+00 8.646E-06
1
  ATMOSPHERIC PROFILES

   I      Z       P       T      H2O      O3       CO2      CO       CH4      N2O      O2       NH3      NO       NO2      SO2
         (KM)    (MB)    (K)  (                                 ATM CM/KM                                                     )
   1     0.00 1013.000  288.2  7.33E+02 2.52E-03 3.55E+01 1.42E-02 0.00E+00 3.03E-02 1.98E+04 4.73E-05 2.84E-05 2.18E-06 2.84E-05
   2     1.00  898.800  281.7  5.22E+02 2.52E-03 3.22E+01 1.25E-02 0.00E+00 2.75E-02 1.80E+04 4.30E-05 2.58E-05 1.98E-06 2.36E-05
   3     2.00  795.000  275.2  3.60E+02 2.52E-03 2.92E+01 1.09E-02 0.00E+00 2.49E-02 1.63E+04 3.60E-05 2.33E-05 1.79E-06 1.84E-05
   4     3.00  701.200  268.7  2.24E+02 2.33E-03 2.64E+01 9.48E-03 0.00E+00 2.25E-02 1.47E+04 2.67E-05 2.11E-05 1.62E-06 1.34E-05
   5     4.00  616.600  262.2  1.37E+02 2.15E-03 2.38E+01 8.31E-03 0.00E+00 2.03E-02 1.32E+04 1.82E-05 1.90E-05 1.46E-06 9.25E-06
   6     5.00  540.500  255.7  7.95E+01 2.15E-03 2.14E+01 7.42E-03 0.00E+00 1.82E-02 1.19E+04 1.16E-05 1.71E-05 1.31E-06 6.72E-06
   7     6.00  472.200  249.2  4.72E+01 2.10E-03 1.91E+01 6.57E-03 0.00E+00 1.63E-02 1.07E+04 7.45E-06 1.53E-05 1.17E-06 4.96E-06
   8     7.00  411.100  242.7  2.61E+01 2.29E-03 1.71E+01 5.69E-03 0.00E+00 1.46E-02 9.54E+03 4.51E-06 1.37E-05 1.05E-06 3.79E-06
   9     8.00  356.500  236.2  1.49E+01 2.43E-03 1.52E+01 4.82E-03 0.00E+00 1.30E-02 8.50E+03 2.63E-06 1.22E-05 9.35E-07 2.93E-06
  10     9.00  308.000  229.7  5.72E+00 3.31E-03 1.35E+01 3.95E-03 0.00E+00 1.15E-02 7.55E+03 1.36E-06 1.08E-05 8.38E-07 2.37E-06
  11    10.00  265.000  223.3  2.24E+00 4.20E-03 1.20E+01 3.18E-03 0.00E+00 1.02E-02 6.68E+03 6.49E-07 9.59E-06 7.61E-07 1.94E-06
  12    11.00  227.000  216.8  1.02E+00 6.06E-03 1.06E+01 2.53E-03 0.00E+00 8.86E-03 5.90E+03 3.07E-07 8.46E-06 7.39E-07 1.63E-06
  13    12.00  194.000  216.7  4.60E-01 7.46E-03 9.04E+00 1.88E-03 0.00E+00 7.46E-03 5.04E+03 1.52E-07 7.24E-06 7.60E-07 1.35E-06
  14    13.00  165.800  216.7  2.24E-01 7.93E-03 7.73E+00 1.31E-03 0.00E+00 6.28E-03 4.31E+03 6.43E-08 6.16E-06 9.17E-07 1.15E-06
  15    14.00  141.700  216.7  1.04E-01 8.86E-03 6.61E+00 8.85E-04 0.00E+00 5.28E-03 3.68E+03 1.96E-08 5.20E-06 1.32E-06 9.94E-07
  16    15.00  121.100  216.7  7.53E-02 9.79E-03 5.65E+00 5.93E-04 0.00E+00 4.43E-03 3.15E+03 6.73E-09 4.26E-06 2.57E-06 8.66E-07
  17    16.00  103.500  216.7  5.08E-02 1.12E-02 4.83E+00 3.95E-04 0.00E+00 3.70E-03 2.69E+03 2.71E-09 3.45E-06 4.10E-06 7.40E-07
  18    17.00   88.500  216.7  4.24E-02 1.31E-02 4.13E+00 2.74E-04 0.00E+00 3.06E-03 2.30E+03 1.21E-09 2.77E-06 5.71E-06 5.91E-07
  19    18.00   75.650  216.7  3.60E-02 1.49E-02 3.53E+00 1.85E-04 0.00E+00 2.51E-03 1.97E+03 6.30E-10 2.26E-06 7.25E-06 4.50E-07
  20    19.00   64.670  216.7  3.09E-02 1.63E-02 3.01E+00 1.25E-04 0.00E+00 2.03E-03 1.68E+03 3.19E-10 1.96E-06 8.52E-06 3.19E-07
  21    20.00   55.290  216.7  2.68E-02 1.77E-02 2.58E+00 9.15E-05 0.00E+00 1.63E-03 1.44E+03 1.66E-10 1.75E-06 9.55E-06 2.19E-07
  22    21.00   47.290  217.6  2.33E-02 1.77E-02 2.20E+00 7.21E-05 0.00E+00 1.28E-03 1.22E+03 1.12E-10 1.62E-06 1.03E-05 1.56E-07
  23    22.00   40.470  218.6  2.03E-02 1.82E-02 1.87E+00 6.14E-05 0.00E+00 1.02E-03 1.04E+03 8.58E-11 1.53E-06 1.08E-05 1.14E-07
  24    23.00   34.670  219.6  1.79E-02 1.77E-02 1.59E+00 5.56E-05 0.00E+00 8.37E-04 8.89E+02 6.76E-11 1.53E-06 1.10E-05 8.80E-08
  25    24.00   29.720  220.6  1.56E-02 1.68E-02 1.36E+00 5.08E-05 0.00E+00 6.81E-04 7.59E+02 5.23E-11 1.64E-06 1.11E-05 6.90E-08
  26    25.00   25.490  221.6  1.37E-02 1.59E-02 1.16E+00 4.64E-05 0.00E+00 5.44E-04 6.48E+02 3.81E-11 2.12E-06 1.16E-05 5.42E-08
  27    30.00   11.970  226.5  6.73E-03 9.33E-03 5.34E-01 2.43E-05 0.00E+00 2.02E-04 2.98E+02 9.04E-12 3.49E-06 8.77E-06 1.91E-08
  28    35.00    5.746  236.5  3.21E-03 5.13E-03 2.45E-01 1.31E-05 0.00E+00 6.07E-05 1.37E+02 1.19E-12 4.67E-06 4.76E-06 7.59E-09
  29    40.00    2.871  250.4  1.55E-03 2.25E-03 1.16E-01 7.71E-06 0.00E+00 1.39E-05 6.46E+01 9.08E-14 3.46E-06 1.24E-06 4.20E-09
  30    45.00    1.491  264.2  7.94E-04 7.98E-04 5.70E-02 4.93E-06 0.00E+00 2.42E-06 3.18E+01 4.53E-15 1.78E-06 1.75E-07 3.19E-09
  31    50.00    0.798  270.7  4.15E-04 2.46E-04 2.98E-02 3.65E-06 0.00E+00 3.77E-07 1.66E+01 5.66E-16 8.18E-07 3.52E-08 2.83E-09
  32    70.00    0.052  219.6  2.24E-05 1.92E-06 2.40E-03 1.96E-06 0.00E+00 7.36E-09 1.34E+00 1.65E-17 7.36E-08 1.48E-09 2.77E-10
  33   100.00    0.000  195.1  1.77E-08 1.77E-08 9.79E-06 7.48E-07 0.00E+00 1.47E-11 7.07E-03 6.54E-20 9.19E-08 7.51E-12 1.58E-14
1
  ATMOSPHERIC PROFILES

   I      Z       P       T     CFC-11   CFC-12   CFC-13   CFC-14   CFC-22   CFC-113  CFC-114  CFC-115  CLONO2    HNO4    CHCL2F
                                 CCL4     N2O5
         (KM)    (MB)    (K)  (                                 ATM CM/KM                                                     )
   1     0.00 1013.000  288.2  1.33E-05 2.27E-05 9.47E-14 9.47E-14 5.68E-06 1.80E-06 1.14E-06 9.47E-14 5.44E-07 4.11E-08 9.47E-14
                               1.23E-05 2.29E-11
   2     1.00  898.800  281.7  1.20E-05 2.06E-05 8.60E-14 8.60E-14 5.15E-06 1.63E-06 1.03E-06 8.60E-14 4.41E-07 1.84E-07 8.60E-14
                               1.12E-05 8.20E-11
   3     2.00  795.000  275.2  1.09E-05 1.87E-05 7.78E-14 7.78E-14 4.66E-06 1.48E-06 9.34E-07 7.78E-14 3.51E-07 2.99E-07 7.78E-14
                               1.01E-05 1.30E-10
   4     3.00  701.200  268.7  9.84E-06 1.69E-05 7.03E-14 7.03E-14 4.21E-06 1.34E-06 8.44E-07 7.03E-14 2.73E-07 3.89E-07 7.03E-14
                               9.14E-06 1.67E-10
   5     4.00  616.600  262.2  8.87E-06 1.52E-05 6.34E-14 6.34E-14 3.79E-06 1.20E-06 7.60E-07 6.34E-14 2.07E-07 4.59E-07 6.34E-14
                               8.24E-06 1.96E-10
   6     5.00  540.500  255.7  7.97E-06 1.37E-05 5.69E-14 5.69E-14 3.40E-06 1.08E-06 6.83E-07 5.69E-14 1.57E-07 1.03E-06 5.69E-14
                               7.39E-06 2.05E-10
   7     6.00  472.200  249.2  7.15E-06 1.23E-05 5.10E-14 5.10E-14 3.05E-06 9.70E-07 6.13E-07 5.10E-14 1.15E-07 1.48E-06 5.10E-14
                               6.61E-06 2.11E-10
   8     7.00  411.100  242.7  6.39E-06 1.10E-05 4.56E-14 4.56E-14 2.73E-06 8.67E-07 5.48E-07 4.56E-14 7.96E-08 1.82E-06 4.56E-14
                               5.90E-06 2.12E-10
   9     8.00  356.500  236.2  5.69E-06 9.76E-06 4.07E-14 4.07E-14 2.43E-06 7.73E-07 4.88E-07 4.07E-14 5.04E-08 2.07E-06 4.07E-14
                               5.25E-06 2.10E-10
  10     9.00  308.000  229.7  5.05E-06 8.66E-06 3.61E-14 3.61E-14 2.15E-06 6.86E-07 4.33E-07 3.61E-14 4.36E-08 1.77E-06 3.61E-14
                               4.66E-06 2.08E-10
  11    10.00  265.000  223.3  4.46E-06 7.66E-06 3.20E-14 3.20E-14 1.91E-06 6.06E-07 3.84E-07 3.20E-14 3.76E-08 1.51E-06 3.20E-14
                               4.12E-06 2.03E-10
  12    11.00  227.000  216.8  3.93E-06 6.75E-06 2.82E-14 2.82E-14 1.68E-06 5.34E-07 3.38E-07 2.82E-14 3.22E-08 1.28E-06 2.82E-14
                               3.64E-06 1.97E-10
  13    12.00  194.000  216.7  3.35E-06 5.76E-06 2.41E-14 2.41E-14 1.44E-06 4.56E-07 2.89E-07 2.41E-14 2.68E-08 1.05E-06 2.41E-14
                               3.11E-06 1.83E-10
  14    13.00  165.800  216.7  2.78E-06 4.85E-06 2.06E-14 2.06E-14 1.21E-06 3.82E-07 2.45E-07 2.06E-14 1.65E-07 1.17E-06 2.06E-14
                               2.58E-06 9.08E-09
  15    14.00  141.700  216.7  2.31E-06 4.09E-06 1.76E-14 1.76E-14 1.03E-06 3.21E-07 2.07E-07 1.76E-14 2.63E-07 1.22E-06 1.76E-14
                               2.13E-06 1.54E-08
  16    15.00  121.100  216.7  1.91E-06 3.44E-06 1.51E-14 1.51E-14 8.70E-07 2.69E-07 1.75E-07 1.51E-14 3.28E-07 1.24E-06 1.51E-14
                               1.76E-06 1.97E-08
  17    16.00  103.500  216.7  1.58E-06 2.90E-06 1.29E-14 1.29E-14 7.36E-07 2.25E-07 1.48E-07 1.29E-14 3.69E-07 1.22E-06 1.29E-14
                               1.45E-06 2.24E-08
  18    17.00   88.500  216.7  1.24E-06 2.36E-06 1.10E-14 1.10E-14 6.12E-07 1.82E-07 1.23E-07 1.10E-14 1.12E-06 1.57E-06 1.10E-14
                               1.12E-06 9.66E-08
  19    18.00   75.650  216.7  9.56E-07 1.92E-06 9.40E-15 9.40E-15 5.08E-07 1.46E-07 1.02E-07 9.40E-15 1.64E-06 1.79E-06 9.40E-15
                               8.52E-07 1.49E-07
  20    19.00   64.670  216.7  7.31E-07 1.56E-06 8.04E-15 8.04E-15 4.22E-07 1.17E-07 8.47E-08 8.04E-15 1.99E-06 1.91E-06 8.04E-15
                               6.38E-07 1.84E-07
  21    20.00   55.290  216.7  5.51E-07 1.26E-06 6.87E-15 6.87E-15 3.50E-07 9.35E-08 7.01E-08 6.87E-15 2.20E-06 1.96E-06 6.87E-15
                               4.69E-07 2.06E-07
  22    21.00   47.290  217.6  4.02E-07 1.00E-06 5.85E-15 5.85E-15 2.86E-07 7.25E-08 5.71E-08 5.85E-15 2.69E-06 2.06E-06 5.85E-15
                               3.35E-07 2.43E-07
  23    22.00   40.470  218.6  2.85E-07 7.88E-07 4.99E-15 4.99E-15 2.34E-07 5.57E-08 4.64E-08 4.99E-15 2.99E-06 2.09E-06 4.99E-15
                               2.30E-07 2.64E-07
  24    23.00   34.670  219.6  1.94E-07 6.17E-07 4.25E-15 4.25E-15 1.91E-07 4.22E-08 3.77E-08 4.25E-15 3.15E-06 2.06E-06 4.25E-15
                               1.49E-07 2.75E-07
  25    24.00   29.720  220.6  1.23E-07 4.79E-07 3.63E-15 3.63E-15 1.56E-07 3.16E-08 3.06E-08 3.63E-15 3.19E-06 2.00E-06 3.63E-15
                               8.71E-08 2.76E-07
  26    25.00   25.490  221.6  8.45E-08 3.68E-07 3.10E-15 3.10E-15 1.27E-07 2.36E-08 2.46E-08 3.10E-15 3.01E-06 1.80E-06 3.10E-15
                               5.84E-08 2.39E-07
  27    30.00   11.970  226.5  5.56E-09 8.38E-08 1.42E-15 1.42E-15 4.31E-08 4.15E-09 8.02E-09 1.42E-15 1.62E-06 7.26E-07 1.42E-15
                               2.50E-09 7.86E-08
  28    35.00    5.746  236.5  1.30E-10 1.40E-08 6.55E-16 6.55E-16 1.35E-08 4.69E-10 2.39E-09 6.55E-16 3.43E-07 9.61E-08 6.55E-16
                               2.59E-11 7.08E-09
  29    40.00    2.871  250.4  5.71E-13 1.88E-09 3.09E-16 3.09E-16 4.29E-09 3.80E-11 7.17E-10 3.09E-16 1.32E-08 3.08E-09 3.09E-16
                               1.22E-14 6.58E-11
  30    45.00    1.491  264.2  1.40E-14 3.24E-10 1.52E-16 1.52E-16 1.58E-09 4.89E-12 2.46E-10 1.52E-16 2.55E-10 1.33E-10 1.52E-16
                               8.47E-17 5.99E-13
  31    50.00    0.798  270.7  4.74E-16 6.76E-11 7.94E-17 7.94E-17 6.97E-10 7.86E-13 9.92E-11 7.94E-17 3.71E-12 6.06E-12 7.94E-17
                               8.68E-19 4.99E-15
  32    70.00    0.052  219.6  3.26E-21 2.50E-13 6.40E-18 6.40E-18 4.60E-11 1.13E-15 3.75E-12 6.40E-18 4.63E-19 2.06E-16 6.40E-18
                               6.32E-26 5.25E-23
  33   100.00    0.000  195.1  1.37E-30 1.10E-18 4.42E-20 4.42E-20 7.91E-14 5.79E-22 9.41E-16 4.42E-20 3.57E-35 1.47E-31 4.42E-20
                               2.25E-38 0.00E+00


 CASE 3A: GIVEN H1,H2=SPACE,ANGLE



 TANGENT PATH WITH H1 =     70.000 AND ANGLE =    180.000 INTERSECTS THE EARTH

          H2 HAS BEEN RESET TO 0.0 AND LEN TO 0



 SLANT PATH PARAMETERS IN STANDARD FORM

          H1      =     70.000 KM
          H2      =      0.000 KM
          ANGLE   =    180.000 DEG
          PHI     =      0.000 DEG
          HMIN    =      0.000 KM
          LEN     =          0
1CALCULATION OF THE REFRACTED PATH THROUGH THE ATMOSPHERE


  I       ALTITUDE        THETA  DRANGE    RANGE    DBETA     BETA     PHI     DBEND  BENDING    PBAR    TBAR   RHOBAR
      FROM       TO
      (KM)      (KM)      (DEG)    (KM)     (KM)    (DEG)    (DEG)    (DEG)    (DEG)    (DEG)    (MB)    (K)  (GM CM-3)

          H2 TO H1

  1    0.000    1.000    0.000    1.000    1.000    0.000    0.000  180.000    0.000    0.000  955.683  284.99 1.17E-03
  2    1.000    2.000    0.000    1.000    2.000    0.000    0.000  180.000    0.000    0.000  846.698  278.49 1.06E-03
  3    2.000    3.000    0.000    1.000    3.000    0.000    0.000  180.000    0.000    0.000  747.913  271.99 9.57E-04
  4    3.000    4.000    0.000    1.000    4.000    0.000    0.000  180.000    0.000    0.000  658.727  265.49 8.63E-04
  5    4.000    5.000    0.000    1.000    5.000    0.000    0.000  180.000    0.000    0.000  578.391  258.99 7.77E-04
  6    5.000    6.000    0.000    1.000    6.000    0.000    0.000  180.000    0.000    0.000  506.204  252.50 6.98E-04
  7    6.000    7.000    0.000    1.000    7.000    0.000    0.000  180.000    0.000    0.000  441.515  246.00 6.24E-04
  8    7.000    8.000    0.000    1.000    8.000    0.000    0.000  180.000    0.000    0.000  383.677  239.50 5.57E-04
  9    8.000    9.000    0.000    1.000    9.000    0.000    0.000  180.000    0.000    0.000  332.137  233.00 4.96E-04
 10    9.000   10.000    0.000    1.000   10.000    0.000    0.000  180.000    0.000    0.000  286.399  226.55 4.40E-04
 11   10.000   11.000    0.000    1.000   11.000    0.000    0.000  180.000    0.000    0.000  245.907  220.10 3.89E-04
 12   11.000   12.000    0.000    1.000   12.000    0.000    0.000  180.000    0.000    0.000  210.499  216.75 3.38E-04
 13   12.000   13.000    0.000    1.000   13.000    0.000    0.000  180.000    0.000    0.000  179.900  216.70 2.89E-04
 14   13.000   14.000    0.000    1.000   14.000    0.000    0.000  180.000    0.000    0.000  153.750  216.70 2.47E-04
 15   14.000   15.000    0.000    1.000   15.000    0.000    0.000  180.000    0.000    0.000  131.400  216.70 2.11E-04
 16   15.000   16.000    0.000    1.000   16.000    0.000    0.000  180.000    0.000    0.000  112.300  216.70 1.80E-04
 17   16.000   17.000    0.000    1.000   17.000    0.000    0.000  180.000    0.000    0.000   96.000  216.70 1.54E-04
 18   17.000   18.000    0.000    1.000   18.000    0.000    0.000  180.000    0.000    0.000   82.075  216.70 1.32E-04
 19   18.000   19.000    0.000    1.000   19.000    0.000    0.000  180.000    0.000    0.000   70.160  216.70 1.13E-04
 20   19.000   20.000    0.000    1.000   20.000    0.000    0.000  180.000    0.000    0.000   59.980  216.70 9.62E-05
 21   20.000   21.000    0.000    1.000   21.000    0.000    0.000  180.000    0.000    0.000   51.293  217.14 8.21E-05
 22   21.000   22.000    0.000    1.000   22.000    0.000    0.000  180.000    0.000    0.000   43.883  218.09 7.00E-05
 23   22.000   23.000    0.000    1.000   23.000    0.000    0.000  180.000    0.000    0.000   37.572  219.09 5.96E-05
 24   23.000   24.000    0.000    1.000   24.000    0.000    0.000  180.000    0.000    0.000   32.197  220.09 5.09E-05
 25   24.000   25.000    0.000    1.000   25.000    0.000    0.000  180.000    0.000    0.000   27.607  221.09 4.34E-05
 26   25.000   30.000    0.000    5.000   30.000    0.000    0.000  180.000    0.000    0.000   18.754  223.73 2.79E-05
 27   30.000   35.000    0.000    5.000   35.000    0.000    0.000  180.000    0.000    0.000    8.880  230.82 1.28E-05
 28   35.000   40.000    0.000    5.000   40.000    0.000    0.000  180.000    0.000    0.000    4.322  242.52 5.95E-06
 29   40.000   45.000    0.000    5.000   45.000    0.000    0.000  180.000    0.000    0.000    2.187  256.43 2.86E-06
 30   45.000   50.000    0.000    5.000   50.000    0.000    0.000  180.000    0.000    0.000    1.146  267.09 1.45E-06
 31   50.000   70.000    0.000   20.000   70.000    0.000    0.000  180.000    0.000    0.000    0.414  254.07 3.75E-07




1CUMULATIVE ABSORBER AMOUNTS FOR THE PATH FROM H1 TO Z

  J     Z        TBAR     HNO3        O3 UV      CNTMSLF1   CNTMSLF2    CNTMFRN      O2
       (KM)       (K)   (ATM CM)    (ATM CM)    (MOL CM-2)  (MOL CM-2)  (MOL CM-2)(MOL CM-2)

  1   50.000   254.07   2.757E-08   1.006E-03   1.712E+08   1.993E+08   3.515E+13   1.212E+02
  2   45.000   267.09   7.655E-08   3.353E-03   6.852E+08   6.122E+08   1.336E+14   2.382E+02
  3   40.000   256.43   4.104E-07   1.037E-02   2.617E+09   2.735E+09   5.125E+14   4.699E+02
  4   35.000   242.52   2.836E-06   2.785E-02   1.051E+10   1.447E+10   2.110E+15   9.529E+02
  5   30.000   230.82   1.612E-05   6.296E-02   4.487E+10   7.666E+10   9.286E+15   1.997E+03
  6   25.000   223.73   6.711E-05   1.245E-01   1.908E+11   3.695E+11   4.146E+16   4.291E+03
  7   24.000   221.09   8.635E-05   1.408E-01   2.532E+11   4.995E+11   5.580E+16   5.013E+03
  8   23.000   220.09   1.091E-04   1.581E-01   3.346E+11   6.712E+11   7.498E+16   5.862E+03
  9   22.000   219.09   1.349E-04   1.760E-01   4.403E+11   8.970E+11   1.006E+17   6.862E+03
 10   21.000   218.09   1.630E-04   1.940E-01   5.781E+11   1.195E+12   1.349E+17   8.044E+03
 11   20.000   217.14   1.920E-04   2.117E-01   7.603E+11   1.594E+12   1.813E+17   9.442E+03
 12   19.000   216.70   2.191E-04   2.287E-01   1.003E+12   2.128E+12   2.439E+17   1.109E+04
 13   18.000   216.70   2.418E-04   2.444E-01   1.328E+12   2.845E+12   3.287E+17   1.304E+04
 14   17.000   216.70   2.590E-04   2.584E-01   1.773E+12   3.826E+12   4.449E+17   1.535E+04
 15   16.000   216.70   2.709E-04   2.705E-01   2.404E+12   5.214E+12   6.065E+17   1.809E+04
 16   15.000   216.70   2.791E-04   2.810E-01   3.546E+12   7.731E+12   8.604E+17   2.134E+04
 17   14.000   216.70   2.854E-04   2.903E-01   5.875E+12   1.286E+13   1.285E+18   2.521E+04
 18   13.000   216.70   2.912E-04   2.987E-01   1.335E+13   2.932E+13   2.163E+18   2.983E+04
 19   12.000   216.70   2.969E-04   3.064E-01   4.593E+13   1.011E+14   4.313E+18   3.536E+04
 20   11.000   216.75   3.027E-04   3.132E-01   1.972E+14   4.340E+14   9.713E+18   4.201E+04
 21   10.000   220.10   3.083E-04   3.183E-01   9.311E+14   1.981E+15   2.338E+19   4.986E+04
 22    9.000   226.55   3.139E-04   3.220E-01   5.225E+15   1.027E+16   6.046E+19   5.898E+04
 23    8.000   233.00   3.195E-04   3.249E-01   3.402E+16   6.066E+16   1.686E+20   6.955E+04
 24    7.000   239.50   3.252E-04   3.273E-01   1.533E+17   2.479E+17   4.207E+20   8.179E+04
 25    6.000   246.00   3.309E-04   3.295E-01   5.336E+17   7.762E+17   9.243E+20   9.594E+04
 26    5.000   252.50   3.365E-04   3.316E-01   1.678E+18   2.159E+18   1.902E+21   1.123E+05
 27    4.000   258.99   3.421E-04   3.337E-01   5.000E+18   5.574E+18   3.756E+21   1.311E+05
 28    3.000   265.49   3.477E-04   3.360E-01   1.427E+19   1.343E+19   7.197E+21   1.528E+05
 29    2.000   271.99   3.532E-04   3.384E-01   3.863E+19   2.968E+19   1.338E+22   1.778E+05
 30    1.000   278.49   3.584E-04   3.409E-01   9.463E+19   5.691E+19   2.375E+22   2.065E+05
 31    0.000   284.99   3.634E-04   3.434E-01   2.082E+20   9.164E+19   4.002E+22   2.396E+05



1 J     Z       N2 CONT    MOL SCAT       AER 1       AER 2       AER 3       AER 4       CIRRUS
       (KM)

  1   50.000   2.287E-06   5.803E-03   0.000E+00   0.000E+00   0.000E+00   1.507E-05   0.000E+00
  2   45.000   8.234E-06   1.140E-02   0.000E+00   0.000E+00   0.000E+00   2.983E-05   0.000E+00
  3   40.000   3.167E-05   2.247E-02   0.000E+00   0.000E+00   0.000E+00   5.870E-05   0.000E+00
  4   35.000   1.336E-04   4.550E-02   0.000E+00   0.000E+00   0.000E+00   1.172E-04   0.000E+00
  5   30.000   6.063E-04   9.502E-02   0.000E+00   0.000E+00   8.300E-05   1.582E-04   0.000E+00
  6   25.000   2.845E-03   2.028E-01   0.000E+00   0.000E+00   4.392E-04   1.582E-04   0.000E+00
  7   24.000   3.883E-03   2.364E-01   0.000E+00   0.000E+00   6.014E-04   1.582E-04   0.000E+00
  8   23.000   5.308E-03   2.757E-01   0.000E+00   0.000E+00   8.469E-04   1.582E-04   0.000E+00
  9   22.000   7.266E-03   3.219E-01   0.000E+00   0.000E+00   1.204E-03   1.582E-04   0.000E+00
 10   21.000   9.962E-03   3.760E-01   0.000E+00   0.000E+00   1.663E-03   1.582E-04   0.000E+00
 11   20.000   1.368E-02   4.395E-01   0.000E+00   0.000E+00   2.208E-03   1.582E-04   0.000E+00
 12   19.000   1.878E-02   5.140E-01   0.000E+00   0.000E+00   2.793E-03   1.582E-04   0.000E+00
 13   18.000   2.576E-02   6.011E-01   0.000E+00   0.000E+00   3.343E-03   1.582E-04   0.000E+00
 14   17.000   3.531E-02   7.030E-01   0.000E+00   0.000E+00   3.816E-03   1.582E-04   0.000E+00
 15   16.000   4.838E-02   8.222E-01   0.000E+00   0.000E+00   4.219E-03   1.582E-04   0.000E+00
 16   15.000   6.626E-02   9.616E-01   0.000E+00   0.000E+00   4.608E-03   1.582E-04   0.000E+00
 17   14.000   9.074E-02   1.125E+00   0.000E+00   0.000E+00   5.026E-03   1.582E-04   0.000E+00
 18   13.000   1.243E-01   1.316E+00   0.000E+00   0.000E+00   5.504E-03   1.582E-04   0.000E+00
 19   12.000   1.701E-01   1.539E+00   0.000E+00   0.000E+00   6.081E-03   1.582E-04   0.000E+00
 20   11.000   2.329E-01   1.800E+00   0.000E+00   0.000E+00   6.798E-03   1.582E-04   0.000E+00
 21   10.000   3.161E-01   2.101E+00   0.000E+00   5.700E-04   7.198E-03   1.582E-04   0.000E+00
 22    9.000   4.225E-01   2.441E+00   0.000E+00   2.024E-03   7.198E-03   1.582E-04   0.000E+00
 23    8.000   5.578E-01   2.825E+00   0.000E+00   4.540E-03   7.198E-03   1.582E-04   0.000E+00
 24    7.000   7.288E-01   3.256E+00   0.000E+00   9.194E-03   7.198E-03   1.582E-04   0.000E+00
 25    6.000   9.434E-01   3.739E+00   0.000E+00   1.614E-02   7.198E-03   1.582E-04   0.000E+00
 26    5.000   1.211E+00   4.279E+00   0.000E+00   2.462E-02   7.198E-03   1.582E-04   0.000E+00
 27    4.000   1.543E+00   4.881E+00   0.000E+00   3.801E-02   7.198E-03   1.582E-04   0.000E+00
 28    3.000   1.954E+00   5.549E+00   0.000E+00   6.372E-02   7.198E-03   1.582E-04   0.000E+00
 29    2.000   2.457E+00   6.289E+00   3.105E-02   8.102E-02   7.198E-03   1.582E-04   0.000E+00
 30    1.000   3.073E+00   7.108E+00   3.122E-01   8.102E-02   7.198E-03   1.582E-04   0.000E+00
 31    0.000   3.823E+00   8.011E+00   1.082E+00   8.102E-02   7.198E-03   1.582E-04   0.000E+00



1  J    Z       H2O       O3        CO2       CO        CH4       N2O       O2        NH3       NO        NO2       SO2
      (KM)    (                                                      ATM CM                                             )

   1   50.00  2.69E-03  1.01E-03  2.17E-01  5.43E-05  0.00E+00  1.88E-06  1.21E+02  3.11E-15  6.18E-06  2.13E-07  2.19E-08
   2   45.00  5.61E-03  3.35E-03  4.27E-01  7.56E-05  0.00E+00  7.37E-06  2.38E+02  1.26E-14  1.24E-05  6.48E-07  3.70E-08
   3   40.00  1.13E-02  1.04E-02  8.42E-01  1.07E-04  0.00E+00  4.03E-05  4.69E+02  1.57E-13  2.50E-05  3.37E-06  5.53E-08
   4   35.00  2.27E-02  2.79E-02  1.70E+00  1.58E-04  0.00E+00  1.99E-04  9.50E+02  2.29E-12  4.52E-05  1.65E-05  8.40E-08
   5   30.00  4.64E-02  6.30E-02  3.56E+00  2.49E-04  0.00E+00  7.86E-04  1.98E+03  2.17E-11  6.56E-05  4.93E-05  1.46E-07
   6   25.00  9.55E-02  1.24E-01  7.60E+00  4.20E-04  0.00E+00  2.51E-03  4.24E+03  1.23E-10  7.96E-05  9.99E-05  3.15E-07
   7   24.00  1.10E-01  1.41E-01  8.86E+00  4.68E-04  0.00E+00  3.12E-03  4.94E+03  1.68E-10  8.15E-05  1.11E-04  3.76E-07
   8   23.00  1.27E-01  1.58E-01  1.03E+01  5.21E-04  0.00E+00  3.88E-03  5.76E+03  2.27E-10  8.31E-05  1.22E-04  4.54E-07
   9   22.00  1.46E-01  1.76E-01  1.21E+01  5.80E-04  0.00E+00  4.80E-03  6.72E+03  3.03E-10  8.46E-05  1.33E-04  5.54E-07
  10   21.00  1.68E-01  1.94E-01  1.41E+01  6.46E-04  0.00E+00  5.95E-03  7.85E+03  4.02E-10  8.62E-05  1.44E-04  6.88E-07
  11   20.00  1.93E-01  2.12E-01  1.65E+01  7.28E-04  0.00E+00  7.40E-03  9.18E+03  5.39E-10  8.79E-05  1.54E-04  8.74E-07
  12   19.00  2.21E-01  2.29E-01  1.93E+01  8.35E-04  0.00E+00  9.22E-03  1.07E+04  7.73E-10  8.97E-05  1.63E-04  1.14E-06
  13   18.00  2.55E-01  2.44E-01  2.25E+01  9.88E-04  0.00E+00  1.15E-02  1.26E+04  1.23E-09  9.18E-05  1.71E-04  1.52E-06
  14   17.00  2.94E-01  2.58E-01  2.63E+01  1.21E-03  0.00E+00  1.43E-02  1.47E+04  2.12E-09  9.43E-05  1.77E-04  2.04E-06
  15   16.00  3.40E-01  2.70E-01  3.08E+01  1.54E-03  0.00E+00  1.76E-02  1.72E+04  3.98E-09  9.74E-05  1.82E-04  2.70E-06
  16   15.00  4.03E-01  2.81E-01  3.60E+01  2.03E-03  0.00E+00  2.17E-02  2.01E+04  8.40E-09  1.01E-04  1.85E-04  3.50E-06
  17   14.00  4.92E-01  2.90E-01  4.21E+01  2.76E-03  0.00E+00  2.65E-02  2.35E+04  2.04E-08  1.06E-04  1.87E-04  4.43E-06
  18   13.00  6.48E-01  2.99E-01  4.93E+01  3.85E-03  0.00E+00  3.23E-02  2.75E+04  5.80E-08  1.12E-04  1.88E-04  5.50E-06
  19   12.00  9.76E-01  3.06E-01  5.77E+01  5.43E-03  0.00E+00  3.92E-02  3.21E+04  1.60E-07  1.18E-04  1.89E-04  6.75E-06
  20   11.00  1.68E+00  3.13E-01  6.75E+01  7.62E-03  0.00E+00  4.73E-02  3.76E+04  3.81E-07  1.26E-04  1.90E-04  8.24E-06
  21   10.00  3.23E+00  3.18E-01  7.87E+01  1.05E-02  0.00E+00  5.68E-02  4.39E+04  8.38E-07  1.35E-04  1.91E-04  1.00E-05
  22    9.00  6.94E+00  3.22E-01  9.15E+01  1.40E-02  0.00E+00  6.76E-02  5.10E+04  1.80E-06  1.45E-04  1.91E-04  1.22E-05
  23    8.00  1.65E+01  3.25E-01  1.06E+02  1.84E-02  0.00E+00  7.99E-02  5.90E+04  3.73E-06  1.57E-04  1.92E-04  1.48E-05
  24    7.00  3.65E+01  3.27E-01  1.22E+02  2.36E-02  0.00E+00  9.37E-02  6.80E+04  7.22E-06  1.70E-04  1.93E-04  1.82E-05
  25    6.00  7.21E+01  3.29E-01  1.40E+02  2.98E-02  0.00E+00  1.09E-01  7.81E+04  1.31E-05  1.84E-04  1.94E-04  2.25E-05
  26    5.00  1.34E+02  3.32E-01  1.60E+02  3.67E-02  0.00E+00  1.26E-01  8.94E+04  2.25E-05  2.00E-04  1.96E-04  2.83E-05
  27    4.00  2.40E+02  3.34E-01  1.83E+02  4.46E-02  0.00E+00  1.46E-01  1.02E+05  3.71E-05  2.19E-04  1.97E-04  3.62E-05
  28    3.00  4.16E+02  3.36E-01  2.08E+02  5.35E-02  0.00E+00  1.67E-01  1.16E+05  5.93E-05  2.39E-04  1.99E-04  4.74E-05
  29    2.00  7.03E+02  3.38E-01  2.36E+02  6.37E-02  0.00E+00  1.91E-01  1.31E+05  9.05E-05  2.61E-04  2.00E-04  6.31E-05
  30    1.00  1.14E+03  3.41E-01  2.66E+02  7.53E-02  0.00E+00  2.17E-01  1.48E+05  1.30E-04  2.85E-04  2.02E-04  8.40E-05
  31    0.00  1.76E+03  3.43E-01  3.00E+02  8.86E-02  0.00E+00  2.46E-01  1.67E+05  1.75E-04  3.12E-04  2.04E-04  1.10E-04



1  J    Z      CFC-11    CFC-12    CFC-13    CFC-14    CFC-22    CFC-113   CFC-114   CFC-115   CLONO2     HNO4     CHCL2F
                CCL4      N2O5
      (KM)    (                                                   ATM CM                                                )

   1   50.00  7.97E-16  2.41E-10  5.80E-16  5.80E-16  4.79E-09  2.40E-12  5.83E-10  5.80E-16  4.66E-12  1.18E-11  5.80E-16
              1.06E-18  5.44E-15
   2   45.00  2.07E-14  1.06E-09  1.14E-15  1.14E-15  1.02E-08  1.36E-11  1.39E-09  1.14E-15  3.02E-10  2.17E-10  1.14E-15
              9.26E-17  6.26E-13
   3   40.00  7.72E-13  5.49E-09  2.25E-15  2.25E-15  2.37E-08  9.43E-11  3.59E-09  2.25E-15  1.67E-08  4.90E-09  2.25E-15
              1.23E-14  7.00E-11
   4   35.00  1.20E-10  3.56E-08  4.55E-15  4.55E-15  6.40E-08  9.52E-10  1.05E-08  4.55E-15  5.23E-07  1.40E-07  4.55E-15
              1.69E-11  7.57E-09
   5   30.00  7.34E-09  2.30E-07  9.50E-15  9.50E-15  1.92E-07  9.39E-09  3.38E-08  9.50E-15  4.64E-06  1.70E-06  9.50E-15
              2.72E-09  1.56E-07
   6   25.00  1.52E-07  1.19E-06  2.03E-14  2.03E-14  5.79E-07  6.53E-08  1.08E-07  2.03E-14  1.59E-05  7.61E-06  2.03E-14
              9.14E-08  8.77E-07
   7   24.00  2.55E-07  1.61E-06  2.36E-14  2.36E-14  7.20E-07  9.27E-08  1.35E-07  2.36E-14  1.90E-05  9.51E-06  2.36E-14
              1.63E-07  1.13E-06
   8   23.00  4.11E-07  2.16E-06  2.76E-14  2.76E-14  8.93E-07  1.29E-07  1.69E-07  2.76E-14  2.21E-05  1.15E-05  2.76E-14
              2.79E-07  1.41E-06
   9   22.00  6.47E-07  2.86E-06  3.22E-14  3.22E-14  1.10E-06  1.78E-07  2.11E-07  3.22E-14  2.52E-05  1.36E-05  3.22E-14
              4.65E-07  1.68E-06
  10   21.00  9.87E-07  3.75E-06  3.76E-14  3.76E-14  1.36E-06  2.42E-07  2.63E-07  3.76E-14  2.81E-05  1.57E-05  3.76E-14
              7.44E-07  1.93E-06
  11   20.00  1.46E-06  4.87E-06  4.39E-14  4.39E-14  1.68E-06  3.24E-07  3.26E-07  4.39E-14  3.05E-05  1.77E-05  4.39E-14
              1.14E-06  2.16E-06
  12   19.00  2.10E-06  6.28E-06  5.14E-14  5.14E-14  2.07E-06  4.29E-07  4.03E-07  5.14E-14  3.26E-05  1.96E-05  5.14E-14
              1.69E-06  2.35E-06
  13   18.00  2.94E-06  8.02E-06  6.01E-14  6.01E-14  2.53E-06  5.60E-07  4.96E-07  6.01E-14  3.44E-05  2.15E-05  6.01E-14
              2.43E-06  2.52E-06
  14   17.00  4.02E-06  1.02E-05  7.03E-14  7.03E-14  3.09E-06  7.24E-07  6.09E-07  7.03E-14  3.58E-05  2.32E-05  7.03E-14
              3.41E-06  2.64E-06
  15   16.00  5.43E-06  1.28E-05  8.22E-14  8.22E-14  3.76E-06  9.26E-07  7.44E-07  8.22E-14  3.65E-05  2.46E-05  8.22E-14
              4.69E-06  2.70E-06
  16   15.00  7.17E-06  1.59E-05  9.61E-14  9.61E-14  4.56E-06  1.17E-06  9.05E-07  9.61E-14  3.69E-05  2.58E-05  9.61E-14
              6.29E-06  2.72E-06
  17   14.00  9.27E-06  1.97E-05  1.12E-13  1.12E-13  5.51E-06  1.47E-06  1.10E-06  1.12E-13  3.72E-05  2.70E-05  1.12E-13
              8.23E-06  2.74E-06
  18   13.00  1.18E-05  2.41E-05  1.31E-13  1.31E-13  6.63E-06  1.82E-06  1.32E-06  1.31E-13  3.74E-05  2.82E-05  1.31E-13
              1.06E-05  2.75E-06
  19   12.00  1.49E-05  2.94E-05  1.54E-13  1.54E-13  7.95E-06  2.24E-06  1.59E-06  1.54E-13  3.75E-05  2.93E-05  1.54E-13
              1.34E-05  2.75E-06
  20   11.00  1.85E-05  3.57E-05  1.80E-13  1.80E-13  9.50E-06  2.73E-06  1.90E-06  1.80E-13  3.75E-05  3.05E-05  1.80E-13
              1.68E-05  2.75E-06
  21   10.00  2.27E-05  4.29E-05  2.10E-13  2.10E-13  1.13E-05  3.30E-06  2.26E-06  2.10E-13  3.76E-05  3.19E-05  2.10E-13
              2.07E-05  2.76E-06
  22    9.00  2.74E-05  5.10E-05  2.44E-13  2.44E-13  1.33E-05  3.94E-06  2.67E-06  2.44E-13  3.76E-05  3.35E-05  2.44E-13
              2.50E-05  2.76E-06
  23    8.00  3.28E-05  6.02E-05  2.82E-13  2.82E-13  1.56E-05  4.67E-06  3.13E-06  2.82E-13  3.76E-05  3.54E-05  2.82E-13
              3.00E-05  2.76E-06
  24    7.00  3.88E-05  7.06E-05  3.25E-13  3.25E-13  1.82E-05  5.49E-06  3.65E-06  3.25E-13  3.77E-05  3.74E-05  3.25E-13
              3.56E-05  2.76E-06
  25    6.00  4.56E-05  8.22E-05  3.74E-13  3.74E-13  2.11E-05  6.41E-06  4.23E-06  3.74E-13  3.78E-05  3.90E-05  3.74E-13
              4.18E-05  2.76E-06
  26    5.00  5.32E-05  9.51E-05  4.28E-13  4.28E-13  2.43E-05  7.43E-06  4.87E-06  4.28E-13  3.79E-05  4.03E-05  4.28E-13
              4.88E-05  2.76E-06
  27    4.00  6.16E-05  1.10E-04  4.88E-13  4.88E-13  2.79E-05  8.57E-06  5.59E-06  4.88E-13  3.81E-05  4.11E-05  4.88E-13
              5.66E-05  2.76E-06
  28    3.00  7.09E-05  1.26E-04  5.54E-13  5.54E-13  3.19E-05  9.84E-06  6.40E-06  5.54E-13  3.84E-05  4.15E-05  5.54E-13
              6.53E-05  2.76E-06
  29    2.00  8.13E-05  1.43E-04  6.28E-13  6.28E-13  3.63E-05  1.12E-05  7.28E-06  6.28E-13  3.87E-05  4.18E-05  6.28E-13
              7.49E-05  2.76E-06
  30    1.00  9.27E-05  1.63E-04  7.10E-13  7.10E-13  4.12E-05  1.28E-05  8.27E-06  7.10E-13  3.91E-05  4.21E-05  7.10E-13
              8.55E-05  2.76E-06
  31    0.00  1.05E-04  1.85E-04  8.01E-13  8.01E-13  4.66E-05  1.45E-05  9.35E-06  8.01E-13  3.96E-05  4.22E-05  8.01E-13
              9.73E-05  2.76E-06


0SUMMARY OF THE GEOMETRY CALCULATION

          H1      =     70.000 KM
          H2      =      0.000 KM
          ANGLE   =    180.000 DEG
          RANGE   =     70.000 KM
          BETA    =      0.000 DEG
          PHI     =      0.000 DEG
          HMIN    =      0.000 KM
          BENDING =      0.000 DEG
          LEN     =          0




1EQUIVALENT SEA LEVEL TOTAL ABSORBER AMOUNTS

                 HNO3      O3 UV       CNTMSLF1    CNTMSLF2   CNTMFRN
               (ATM CM)   (ATM CM)     (MOL CM-2)  (MOL CM-2)  (MOL CM-2)  (MOL CM-2)

             3.634E-04   3.434E-01   2.082E+20   9.164E+19   4.002E+22


              N2 CONT    MOL SCAT       AER 1       AER 2       AER 3       AER 4     CIRRUS      MEAN RH
                                                                                                  (PRCNT)

             3.823E+00   8.011E+00   1.082E+00   8.102E-02   7.198E-03   1.582E-04   0.000E+00       48.23


                 H2O        O3          CO2         CO          CH4         N2O          O2
               (                                        ATM CM                            )

             1.761E+03   3.434E-01   3.002E+02   8.863E-02   0.000E+00   2.457E-01   1.673E+05

                 NH3        NO          NO2         SO2
                 (               ATM CM               )

             1.750E-04   3.124E-04   2.043E-04   1.099E-04

             CFC-11      CFC-12      CFC-13      CFC-14      CFC-22      CFC-113     CFC-114
                 (                                      ATM CM                            )

             1.054E-04   1.846E-04   8.006E-13   8.006E-13   4.663E-05   1.452E-05   9.349E-06

             CFC-115     CLONO2       HNO4       CHCL2F       CCL4        N2O5
                 (                                      ATM CM                            )

             8.006E-13   3.955E-05   4.217E-05   8.006E-13   9.728E-05   2.757E-06
1                                             RADIANCE(WATTS/CM2-STER-XXX)
0  FREQ   WAVLEN    PATH THERMAL      SURFACE EMISSION    SURFACE REFLECTED     TOTAL RADIANCE   INTEGRAL    TOTAL
  (CM-1) (MICRN)    (CM-1)   (MICRN)    (CM-1)   (MICRN)    (CM-1)   (MICRN)    (CM-1)   (MICRN)    (CM-1)   TRANS

    100. 100.000  1.28E-06  1.28E-06  0.00E+00  0.00E+00  0.00E+00  0.00E+00  1.28E-06  1.28E-06  1.28E-06  0.00000
    102.  98.039  1.34E-06  1.39E-06  0.00E+00  0.00E+00  0.00E+00  0.00E+00  1.34E-06  1.39E-06  3.95E-06  0.00000
    104.  96.154  1.38E-06  1.49E-06  0.00E+00  0.00E+00  0.00E+00  0.00E+00  1.38E-06  1.49E-06  6.71E-06  0.00000
    106.  94.340  1.42E-06  1.59E-06  0.00E+00  0.00E+00  0.00E+00  0.00E+00  1.42E-06  1.59E-06  9.55E-06  0.00000
    108.  92.593  1.50E-06  1.74E-06  0.00E+00  0.00E+00  0.00E+00  0.00E+00  1.50E-06  1.74E-06  1.25E-05  0.00000
    110.  90.909  1.54E-06  1.87E-06  0.00E+00  0.00E+00  0.00E+00  0.00E+00  1.54E-06  1.87E-06  1.56E-05  0.00000
    112.  89.286  1.57E-06  1.97E-06  0.00E+00  0.00E+00  0.00E+00  0.00E+00  1.57E-06  1.97E-06  1.88E-05  0.00000
    114.  87.719  1.69E-06  2.20E-06  0.00E+00  0.00E+00  0.00E+00  0.00E+00  1.69E-06  2.20E-06  2.21E-05  0.00000
    116.  86.207  1.73E-06  2.32E-06  0.00E+00  0.00E+00  0.00E+00  0.00E+00  1.73E-06  2.32E-06  2.56E-05  0.00000
    118.  84.746  1.72E-06  2.40E-06  0.00E+00  0.00E+00  0.00E+00  0.00E+00  1.72E-06  2.40E-06  2.90E-05  0.00000
    120.  83.333  1.73E-06  2.50E-06  0.00E+00  0.00E+00  0.00E+00  0.00E+00  1.73E-06  2.50E-06  3.25E-05  0.00000
    122.  81.967  1.76E-06  2.62E-06  0.00E+00  0.00E+00  0.00E+00  0.00E+00  1.76E-06  2.62E-06  3.60E-05  0.00000
    124.  80.645  1.85E-06  2.85E-06  0.00E+00  0.00E+00  0.00E+00  0.00E+00  1.85E-06  2.85E-06  3.97E-05  0.00000
    126.  79.365  1.86E-06  2.95E-06  0.00E+00  0.00E+00  0.00E+00  0.00E+00  1.86E-06  2.95E-06  4.35E-05  0.00000
    128.  78.125  1.92E-06  3.15E-06  0.00E+00  0.00E+00  0.00E+00  0.00E+00  1.92E-06  3.15E-06  4.73E-05  0.00000
    130.  76.923  2.00E-06  3.39E-06  0.00E+00  0.00E+00  0.00E+00  0.00E+00  2.00E-06  3.39E-06  5.13E-05  0.00000
    132.  75.758  1.99E-06  3.47E-06  0.00E+00  0.00E+00  0.00E+00  0.00E+00  1.99E-06  3.47E-06  5.53E-05  0.00000
    134.  74.627  2.07E-06  3.71E-06  0.00E+00  0.00E+00  0.00E+00  0.00E+00  2.07E-06  3.71E-06  5.94E-05  0.00000
    136.  73.529  2.18E-06  4.02E-06  0.00E+00  0.00E+00  0.00E+00  0.00E+00  2.18E-06  4.02E-06  6.38E-05  0.00000
    138.  72.464  2.15E-06  4.10E-06  0.00E+00  0.00E+00  0.00E+00  0.00E+00  2.15E-06  4.10E-06  6.81E-05  0.00000
    140.  71.429  2.17E-06  4.25E-06  0.00E+00  0.00E+00  0.00E+00  0.00E+00  2.17E-06  4.25E-06  7.24E-05  0.00000
    142.  70.423  2.30E-06  4.63E-06  0.00E+00  0.00E+00  0.00E+00  0.00E+00  2.30E-06  4.63E-06  7.70E-05  0.00000
    144.  69.444  2.41E-06  5.00E-06  0.00E+00  0.00E+00  0.00E+00  0.00E+00  2.41E-06  5.00E-06  8.18E-05  0.00000
    146.  68.493  2.43E-06  5.19E-06  0.00E+00  0.00E+00  0.00E+00  0.00E+00  2.43E-06  5.19E-06  8.67E-05  0.00000
    148.  67.568  2.39E-06  5.24E-06  0.00E+00  0.00E+00  0.00E+00  0.00E+00  2.39E-06  5.24E-06  9.15E-05  0.00000
    150.  66.667  2.39E-06  5.37E-06  0.00E+00  0.00E+00  0.00E+00  0.00E+00  2.39E-06  5.37E-06  9.63E-05  0.00000
    152.  65.789  2.44E-06  5.64E-06  0.00E+00  0.00E+00  0.00E+00  0.00E+00  2.44E-06  5.64E-06  1.01E-04  0.00000
    154.  64.935  2.51E-06  5.96E-06  0.00E+00  0.00E+00  0.00E+00  0.00E+00  2.51E-06  5.96E-06  1.06E-04  0.00000
    156.  64.103  2.60E-06  6.32E-06  0.00E+00  0.00E+00  0.00E+00  0.00E+00  2.60E-06  6.32E-06  1.11E-04  0.00000
    158.  63.291  2.62E-06  6.54E-06  0.00E+00  0.00E+00  0.00E+00  0.00E+00  2.62E-06  6.54E-06  1.17E-04  0.00000
    160.  62.500  2.77E-06  7.08E-06  0.00E+00  0.00E+00  0.00E+00  0.00E+00  2.77E-06  7.08E-06  1.22E-04  0.00000
    162.  61.728  2.85E-06  7.47E-06  0.00E+00  0.00E+00  0.00E+00  0.00E+00  2.85E-06  7.47E-06  1.28E-04  0.00000
    164.  60.976  2.94E-06  7.91E-06  0.00E+00  0.00E+00  0.00E+00  0.00E+00  2.94E-06  7.91E-06  1.34E-04  0.00000
    166.  60.241  2.86E-06  7.88E-06  0.00E+00  0.00E+00  0.00E+00  0.00E+00  2.86E-06  7.88E-06  1.39E-04  0.00000
    168.  59.524  2.87E-06  8.10E-06  0.00E+00  0.00E+00  0.00E+00  0.00E+00  2.87E-06  8.10E-06  1.45E-04  0.00000
    170.  58.824  2.85E-06  8.24E-06  0.00E+00  0.00E+00  0.00E+00  0.00E+00  2.85E-06  8.24E-06  1.51E-04  0.00000
    172.  58.140  2.93E-06  8.66E-06  0.00E+00  0.00E+00  0.00E+00  0.00E+00  2.93E-06  8.66E-06  1.57E-04  0.00000
    174.  57.471  2.98E-06  9.03E-06  0.00E+00  0.00E+00  0.00E+00  0.00E+00  2.98E-06  9.03E-06  1.63E-04  0.00000
    176.  56.818  3.02E-06  9.37E-06  0.00E+00  0.00E+00  0.00E+00  0.00E+00  3.02E-06  9.37E-06  1.69E-04  0.00000
    178.  56.180  3.05E-06  9.67E-06  0.00E+00  0.00E+00  0.00E+00  0.00E+00  3.05E-06  9.67E-06  1.75E-04  0.00000
    180.  55.556  3.20E-06  1.04E-05  0.00E+00  0.00E+00  0.00E+00  0.00E+00  3.20E-06  1.04E-05  1.81E-04  0.00000
    182.  54.945  3.23E-06  1.07E-05  0.00E+00  0.00E+00  0.00E+00  0.00E+00  3.23E-06  1.07E-05  1.88E-04  0.00000
    184.  54.348  3.40E-06  1.15E-05  0.00E+00  0.00E+00  0.00E+00  0.00E+00  3.40E-06  1.15E-05  1.95E-04  0.00000
    186.  53.763  3.46E-06  1.20E-05  0.00E+00  0.00E+00  0.00E+00  0.00E+00  3.46E-06  1.20E-05  2.01E-04  0.00000
    188.  53.191  3.32E-06  1.17E-05  0.00E+00  0.00E+00  0.00E+00  0.00E+00  3.32E-06  1.17E-05  2.08E-04  0.00000
    190.  52.632  3.53E-06  1.27E-05  0.00E+00  0.00E+00  0.00E+00  0.00E+00  3.53E-06  1.27E-05  2.15E-04  0.00000
    192.  52.083  3.61E-06  1.33E-05  0.00E+00  0.00E+00  0.00E+00  0.00E+00  3.61E-06  1.33E-05  2.22E-04  0.00000
    194.  51.546  3.52E-06  1.32E-05  0.00E+00  0.00E+00  0.00E+00  0.00E+00  3.52E-06  1.32E-05  2.29E-04  0.00000
    196.  51.020  3.61E-06  1.39E-05  0.00E+00  0.00E+00  0.00E+00  0.00E+00  3.61E-06  1.39E-05  2.37E-04  0.00000
    198.  50.505  3.69E-06  1.45E-05  0.00E+00  0.00E+00  0.00E+00  0.00E+00  3.69E-06  1.45E-05  2.44E-04  0.00000
1                                             RADIANCE(WATTS/CM2-STER-XXX)
0  FREQ   WAVLEN    PATH THERMAL      SURFACE EMISSION    SURFACE REFLECTED     TOTAL RADIANCE   INTEGRAL    TOTAL
  (CM-1) (MICRN)    (CM-1)   (MICRN)    (CM-1)   (MICRN)    (CM-1)   (MICRN)    (CM-1)   (MICRN)    (CM-1)   TRANS

    200.  50.000  3.64E-06  1.46E-05  0.00E+00  0.00E+00  0.00E+00  0.00E+00  3.64E-06  1.46E-05  2.51E-04  0.00000
    202.  49.505  3.56E-06  1.45E-05  0.00E+00  0.00E+00  0.00E+00  0.00E+00  3.56E-06  1.45E-05  2.58E-04  0.00000
    204.  49.020  3.65E-06  1.52E-05  0.00E+00  0.00E+00  0.00E+00  0.00E+00  3.65E-06  1.52E-05  2.66E-04  0.00000
    206.  48.544  3.78E-06  1.60E-05  0.00E+00  0.00E+00  0.00E+00  0.00E+00  3.78E-06  1.60E-05  2.73E-04  0.00000
    208.  48.077  3.69E-06  1.60E-05  0.00E+00  0.00E+00  0.00E+00  0.00E+00  3.69E-06  1.60E-05  2.81E-04  0.00000
    210.  47.619  3.85E-06  1.70E-05  0.00E+00  0.00E+00  0.00E+00  0.00E+00  3.85E-06  1.70E-05  2.88E-04  0.00000
    212.  47.170  3.98E-06  1.79E-05  0.00E+00  0.00E+00  0.00E+00  0.00E+00  3.98E-06  1.79E-05  2.96E-04  0.00000
    214.  46.729  3.89E-06  1.78E-05  0.00E+00  0.00E+00  0.00E+00  0.00E+00  3.89E-06  1.78E-05  3.04E-04  0.00000
    216.  46.296  4.15E-06  1.94E-05  0.00E+00  0.00E+00  0.00E+00  0.00E+00  4.15E-06  1.94E-05  3.12E-04  0.00000
    218.  45.872  4.30E-06  2.04E-05  0.00E+00  0.00E+00  0.00E+00  0.00E+00  4.30E-06  2.04E-05  3.21E-04  0.00000
    220.  45.455  4.19E-06  2.03E-05  0.00E+00  0.00E+00  0.00E+00  0.00E+00  4.19E-06  2.03E-05  3.29E-04  0.00000
    222.  45.045  4.01E-06  1.98E-05  0.00E+00  0.00E+00  0.00E+00  0.00E+00  4.01E-06  1.98E-05  3.37E-04  0.00000
    224.  44.643  4.12E-06  2.07E-05  0.00E+00  0.00E+00  0.00E+00  0.00E+00  4.12E-06  2.07E-05  3.46E-04  0.00000
    226.  44.248  4.07E-06  2.08E-05  0.00E+00  0.00E+00  0.00E+00  0.00E+00  4.07E-06  2.08E-05  3.54E-04  0.00000
    228.  43.860  4.10E-06  2.13E-05  0.00E+00  0.00E+00  0.00E+00  0.00E+00  4.10E-06  2.13E-05  3.62E-04  0.00000
    230.  43.478  4.36E-06  2.31E-05  0.00E+00  0.00E+00  0.00E+00  0.00E+00  4.36E-06  2.31E-05  3.71E-04  0.00000
    232.  43.103  4.46E-06  2.40E-05  0.00E+00  0.00E+00  0.00E+00  0.00E+00  4.46E-06  2.40E-05  3.80E-04  0.00000
    234.  42.735  4.66E-06  2.55E-05  0.00E+00  0.00E+00  0.00E+00  0.00E+00  4.66E-06  2.55E-05  3.89E-04  0.00000
    236.  42.373  4.81E-06  2.68E-05  0.00E+00  0.00E+00  0.00E+00  0.00E+00  4.81E-06  2.68E-05  3.98E-04  0.00000
    238.  42.017  4.87E-06  2.76E-05  0.00E+00  0.00E+00  0.00E+00  0.00E+00  4.87E-06  2.76E-05  4.08E-04  0.00000
    240.  41.667  4.91E-06  2.83E-05  0.00E+00  0.00E+00  0.00E+00  0.00E+00  4.91E-06  2.83E-05  4.18E-04  0.00000
    242.  41.322  4.90E-06  2.87E-05  0.00E+00  0.00E+00  0.00E+00  0.00E+00  4.90E-06  2.87E-05  4.28E-04  0.00000
    244.  40.984  4.62E-06  2.75E-05  0.00E+00  0.00E+00  0.00E+00  0.00E+00  4.62E-06  2.75E-05  4.37E-04  0.00000
    246.  40.650  4.43E-06  2.68E-05  0.00E+00  0.00E+00  0.00E+00  0.00E+00  4.43E-06  2.68E-05  4.46E-04  0.00000
    248.  40.323  4.50E-06  2.77E-05  0.00E+00  0.00E+00  0.00E+00  0.00E+00  4.50E-06  2.77E-05  4.55E-04  0.00000
    250.  40.000  4.80E-06  3.00E-05  0.00E+00  0.00E+00  0.00E+00  0.00E+00  4.80E-06  3.00E-05  4.65E-04  0.00000
    252.  39.683  4.72E-06  3.00E-05  0.00E+00  0.00E+00  0.00E+00  0.00E+00  4.72E-06  3.00E-05  4.74E-04  0.00000
    254.  39.370  4.60E-06  2.97E-05  0.00E+00  0.00E+00  0.00E+00  0.00E+00  4.60E-06  2.97E-05  4.83E-04  0.00000
    256.  39.063  4.91E-06  3.22E-05  0.00E+00  0.00E+00  0.00E+00  0.00E+00  4.91E-06  3.22E-05  4.93E-04  0.00000
    258.  38.760  5.23E-06  3.48E-05  0.00E+00  0.00E+00  0.00E+00  0.00E+00  5.23E-06  3.48E-05  5.03E-04  0.00000
    260.  38.462  5.38E-06  3.64E-05  0.00E+00  0.00E+00  0.00E+00  0.00E+00  5.38E-06  3.64E-05  5.14E-04  0.00000
    262.  38.168  5.41E-06  3.71E-05  0.00E+00  0.00E+00  0.00E+00  0.00E+00  5.41E-06  3.71E-05  5.25E-04  0.00000
    264.  37.879  5.39E-06  3.76E-05  0.00E+00  0.00E+00  0.00E+00  0.00E+00  5.39E-06  3.76E-05  5.36E-04  0.00000
    266.  37.594  5.09E-06  3.60E-05  0.00E+00  0.00E+00  0.00E+00  0.00E+00  5.09E-06  3.60E-05  5.46E-04  0.00000
    268.  37.313  5.42E-06  3.89E-05  0.00E+00  0.00E+00  0.00E+00  0.00E+00  5.42E-06  3.89E-05  5.57E-04  0.00000
    270.  37.037  5.65E-06  4.12E-05  0.00E+00  0.00E+00  0.00E+00  0.00E+00  5.65E-06  4.12E-05  5.68E-04  0.00000
    272.  36.765  5.61E-06  4.15E-05  0.00E+00  0.00E+00  0.00E+00  0.00E+00  5.61E-06  4.15E-05  5.79E-04  0.00000
    274.  36.496  5.57E-06  4.18E-05  0.00E+00  0.00E+00  0.00E+00  0.00E+00  5.57E-06  4.18E-05  5.91E-04  0.00000
    276.  36.232  5.16E-06  3.93E-05  0.00E+00  0.00E+00  0.00E+00  0.00E+00  5.16E-06  3.93E-05  6.01E-04  0.00000
    278.  35.971  4.99E-06  3.86E-05  0.00E+00  0.00E+00  0.00E+00  0.00E+00  4.99E-06  3.86E-05  6.11E-04  0.00000
    280.  35.714  5.07E-06  3.97E-05  0.00E+00  0.00E+00  0.00E+00  0.00E+00  5.07E-06  3.97E-05  6.21E-04  0.00000
    282.  35.461  5.10E-06  4.05E-05  0.00E+00  0.00E+00  0.00E+00  0.00E+00  5.10E-06  4.05E-05  6.31E-04  0.00000
    284.  35.211  5.57E-06  4.49E-05  0.00E+00  0.00E+00  0.00E+00  0.00E+00  5.57E-06  4.49E-05  6.42E-04  0.00000
    286.  34.965  5.81E-06  4.75E-05  0.00E+00  0.00E+00  0.00E+00  0.00E+00  5.81E-06  4.75E-05  6.54E-04  0.00000
    288.  34.722  5.59E-06  4.64E-05  0.00E+00  0.00E+00  0.00E+00  0.00E+00  5.59E-06  4.64E-05  6.65E-04  0.00000
    290.  34.483  5.38E-06  4.52E-05  0.00E+00  0.00E+00  0.00E+00  0.00E+00  5.38E-06  4.52E-05  6.76E-04  0.00000
    292.  34.247  5.97E-06  5.09E-05  0.00E+00  0.00E+00  0.00E+00  0.00E+00  5.97E-06  5.09E-05  6.88E-04  0.00000
    294.  34.014  6.20E-06  5.36E-05  0.00E+00  0.00E+00  0.00E+00  0.00E+00  6.20E-06  5.36E-05  7.00E-04  0.00000
    296.  33.784  6.17E-06  5.41E-05  0.00E+00  0.00E+00  0.00E+00  0.00E+00  6.17E-06  5.41E-05  7.13E-04  0.00000
    298.  33.557  6.01E-06  5.34E-05  0.00E+00  0.00E+00  0.00E+00  0.00E+00  6.01E-06  5.34E-05  7.25E-04  0.00000
1                                             RADIANCE(WATTS/CM2-STER-XXX)
0  FREQ   WAVLEN    PATH THERMAL      SURFACE EMISSION    SURFACE REFLECTED     TOTAL RADIANCE   INTEGRAL    TOTAL
  (CM-1) (MICRN)    (CM-1)   (MICRN)    (CM-1)   (MICRN)    (CM-1)   (MICRN)    (CM-1)   (MICRN)    (CM-1)   TRANS

    300.  33.333  5.92E-06  5.33E-05  0.00E+00  0.00E+00  0.00E+00  0.00E+00  5.92E-06  5.33E-05  7.36E-04  0.00000
    302.  33.113  5.42E-06  4.94E-05  0.00E+00  0.00E+00  0.00E+00  0.00E+00  5.42E-06  4.94E-05  7.47E-04  0.00000
    304.  32.895  5.61E-06  5.18E-05  0.00E+00  0.00E+00  0.00E+00  0.00E+00  5.61E-06  5.18E-05  7.58E-04  0.00000
    306.  32.680  6.21E-06  5.82E-05  0.00E+00  0.00E+00  0.00E+00  0.00E+00  6.21E-06  5.82E-05  7.71E-04  0.00000
    308.  32.468  6.41E-06  6.08E-05  0.00E+00  0.00E+00  0.00E+00  0.00E+00  6.41E-06  6.08E-05  7.84E-04  0.00000
    310.  32.258  6.51E-06  6.26E-05  3.95E-43  3.80E-42  0.00E+00  0.00E+00  6.51E-06  6.26E-05  7.97E-04  0.00000
    312.  32.051  6.58E-06  6.41E-05  3.50E-42  3.41E-41  0.00E+00  0.00E+00  6.58E-06  6.41E-05  8.10E-04  0.00000
    314.  31.847  6.27E-06  6.18E-05  1.27E-39  1.25E-38  0.00E+00  0.00E+00  6.27E-06  6.18E-05  8.22E-04  0.00000
    316.  31.646  6.24E-06  6.23E-05  1.27E-39  1.27E-38  0.00E+00  0.00E+00  6.24E-06  6.23E-05  8.35E-04  0.00000
    318.  31.447  6.78E-06  6.85E-05  2.51E-39  2.54E-38  0.00E+00  0.00E+00  6.78E-06  6.85E-05  8.48E-04  0.00000
    320.  31.250  6.72E-06  6.88E-05  7.92E-40  8.11E-39  0.00E+00  0.00E+00  6.72E-06  6.88E-05  8.62E-04  0.00000
    322.  31.056  6.35E-06  6.58E-05  0.00E+00  0.00E+00  0.00E+00  0.00E+00  6.35E-06  6.58E-05  8.75E-04  0.00000
    324.  30.864  5.82E-06  6.11E-05  8.41E-45  8.83E-44  0.00E+00  0.00E+00  5.82E-06  6.11E-05  8.86E-04  0.00000
    326.  30.675  6.32E-06  6.71E-05  0.00E+00  0.00E+00  0.00E+00  0.00E+00  6.32E-06  6.71E-05  8.99E-04  0.00000
    328.  30.488  5.91E-06  6.36E-05  3.36E-44  3.62E-43  0.00E+00  0.00E+00  5.91E-06  6.36E-05  9.11E-04  0.00000
    330.  30.303  6.72E-06  7.32E-05  0.00E+00  0.00E+00  0.00E+00  0.00E+00  6.72E-06  7.32E-05  9.24E-04  0.00000
    332.  30.120  6.97E-06  7.68E-05  1.10E-41  1.21E-40  0.00E+00  0.00E+00  6.97E-06  7.68E-05  9.38E-04  0.00000
    334.  29.940  6.46E-06  7.21E-05  5.28E-35  5.89E-34  0.00E+00  0.00E+00  6.46E-06  7.21E-05  9.51E-04  0.00000
    336.  29.762  6.27E-06  7.07E-05  5.28E-35  5.96E-34  0.00E+00  0.00E+00  6.27E-06  7.07E-05  9.64E-04  0.00000
    338.  29.586  7.11E-06  8.12E-05  4.60E-36  5.26E-35  0.00E+00  0.00E+00  7.11E-06  8.12E-05  9.78E-04  0.00000
    340.  29.412  6.72E-06  7.77E-05  2.02E-31  2.33E-30  0.00E+00  0.00E+00  6.72E-06  7.77E-05  9.91E-04  0.00000
    342.  29.240  6.75E-06  7.89E-05  3.06E-31  3.58E-30  0.00E+00  0.00E+00  6.75E-06  7.89E-05  1.00E-03  0.00000
    344.  29.070  7.03E-06  8.32E-05  1.05E-31  1.24E-30  0.00E+00  0.00E+00  7.03E-06  8.32E-05  1.02E-03  0.00000
    346.  28.902  7.12E-06  8.53E-05  1.54E-32  1.84E-31  0.00E+00  0.00E+00  7.12E-06  8.53E-05  1.03E-03  0.00000
    348.  28.736  7.06E-06  8.56E-05  2.68E-34  3.24E-33  0.00E+00  0.00E+00  7.06E-06  8.56E-05  1.05E-03  0.00000
    350.  28.571  6.40E-06  7.84E-05  0.00E+00  0.00E+00  0.00E+00  0.00E+00  6.40E-06  7.84E-05  1.06E-03  0.00000
    352.  28.409  6.40E-06  7.93E-05  0.00E+00  0.00E+00  0.00E+00  0.00E+00  6.40E-06  7.93E-05  1.07E-03  0.00000
    354.  28.249  6.43E-06  8.05E-05  0.00E+00  0.00E+00  0.00E+00  0.00E+00  6.43E-06  8.05E-05  1.09E-03  0.00000
    356.  28.090  6.65E-06  8.43E-05  2.23E-42  2.83E-41  0.00E+00  0.00E+00  6.65E-06  8.43E-05  1.10E-03  0.00000
    358.  27.933  6.60E-06  8.46E-05  2.23E-42  2.86E-41  0.00E+00  0.00E+00  6.60E-06  8.46E-05  1.11E-03  0.00000
    360.  27.778  7.61E-06  9.86E-05  1.90E-23  2.46E-22  0.00E+00  0.00E+00  7.61E-06  9.86E-05  1.13E-03  0.00000
    362.  27.624  7.82E-06  1.02E-04  1.38E-20  1.81E-19  0.00E+00  0.00E+00  7.82E-06  1.02E-04  1.14E-03  0.00000
    364.  27.473  7.95E-06  1.05E-04  2.28E-18  3.01E-17  0.00E+00  0.00E+00  7.95E-06  1.05E-04  1.16E-03  0.00000
    366.  27.322  8.07E-06  1.08E-04  6.87E-18  9.20E-17  0.00E+00  0.00E+00  8.07E-06  1.08E-04  1.17E-03  0.00000
    368.  27.174  7.72E-06  1.05E-04  4.12E-19  5.57E-18  0.00E+00  0.00E+00  7.72E-06  1.05E-04  1.19E-03  0.00000
    370.  27.027  6.97E-06  9.54E-05  1.71E-24  2.34E-23  0.00E+00  0.00E+00  6.97E-06  9.54E-05  1.20E-03  0.00000
    372.  26.882  7.82E-06  1.08E-04  4.42E-25  6.11E-24  0.00E+00  0.00E+00  7.82E-06  1.08E-04  1.22E-03  0.00000
    374.  26.738  6.92E-06  9.67E-05  2.38E-38  3.33E-37  0.00E+00  0.00E+00  6.92E-06  9.67E-05  1.23E-03  0.00000
    376.  26.596  6.88E-06  9.72E-05  0.00E+00  0.00E+00  0.00E+00  0.00E+00  6.88E-06  9.72E-05  1.25E-03  0.00000
    378.  26.455  7.89E-06  1.13E-04  4.31E-20  6.16E-19  0.00E+00  0.00E+00  7.89E-06  1.13E-04  1.26E-03  0.00000
    380.  26.316  8.21E-06  1.19E-04  4.90E-17  7.07E-16  0.00E+00  0.00E+00  8.21E-06  1.19E-04  1.28E-03  0.00000
    382.  26.178  8.24E-06  1.20E-04  3.95E-17  5.76E-16  0.00E+00  0.00E+00  8.24E-06  1.20E-04  1.30E-03  0.00000
    384.  26.042  7.25E-06  1.07E-04  4.77E-29  7.04E-28  0.00E+00  0.00E+00  7.25E-06  1.07E-04  1.31E-03  0.00000
    386.  25.907  7.21E-06  1.07E-04  7.79E-20  1.16E-18  0.00E+00  0.00E+00  7.21E-06  1.07E-04  1.33E-03  0.00000
    388.  25.773  8.51E-06  1.28E-04  2.46E-14  3.70E-13  0.00E+00  0.00E+00  8.51E-06  1.28E-04  1.34E-03  0.00000
    390.  25.641  8.65E-06  1.32E-04  7.02E-14  1.07E-12  0.00E+00  0.00E+00  8.65E-06  1.32E-04  1.36E-03  0.00000
    392.  25.510  8.60E-06  1.32E-04  1.84E-14  2.82E-13  0.00E+00  0.00E+00  8.60E-06  1.32E-04  1.38E-03  0.00000
    394.  25.381  7.65E-06  1.19E-04  2.73E-20  4.24E-19  0.00E+00  0.00E+00  7.65E-06  1.19E-04  1.39E-03  0.00000
    396.  25.253  7.04E-06  1.10E-04  2.58E-38  4.04E-37  0.00E+00  0.00E+00  7.04E-06  1.10E-04  1.41E-03  0.00000
    398.  25.126  6.89E-06  1.09E-04  2.03E-35  3.22E-34  0.00E+00  0.00E+00  6.89E-06  1.09E-04  1.42E-03  0.00000
1                                             RADIANCE(WATTS/CM2-STER-XXX)
0  FREQ   WAVLEN    PATH THERMAL      SURFACE EMISSION    SURFACE REFLECTED     TOTAL RADIANCE   INTEGRAL    TOTAL
  (CM-1) (MICRN)    (CM-1)   (MICRN)    (CM-1)   (MICRN)    (CM-1)   (MICRN)    (CM-1)   (MICRN)    (CM-1)   TRANS

    400.  25.000  7.42E-06  1.19E-04  1.45E-30  2.31E-29  0.00E+00  0.00E+00  7.42E-06  1.19E-04  1.43E-03  0.00000
    402.  24.876  8.74E-06  1.41E-04  3.03E-13  4.90E-12  0.00E+00  0.00E+00  8.74E-06  1.41E-04  1.45E-03  0.00000
    404.  24.752  9.00E-06  1.47E-04  5.86E-12  9.56E-11  0.00E+00  0.00E+00  9.00E-06  1.47E-04  1.47E-03  0.00000
    406.  24.631  9.11E-06  1.50E-04  5.41E-11  8.92E-10  0.00E+00  0.00E+00  9.11E-06  1.50E-04  1.49E-03  0.00000
    408.  24.510  9.31E-06  1.55E-04  2.13E-10  3.54E-09  0.00E+00  0.00E+00  9.31E-06  1.55E-04  1.51E-03  0.00002
    410.  24.390  9.35E-06  1.57E-04  2.31E-10  3.89E-09  0.00E+00  0.00E+00  9.35E-06  1.57E-04  1.53E-03  0.00002
    412.  24.272  9.35E-06  1.59E-04  1.70E-10  2.89E-09  0.00E+00  0.00E+00  9.35E-06  1.59E-04  1.54E-03  0.00001
    414.  24.155  9.12E-06  1.56E-04  2.66E-11  4.56E-10  0.00E+00  0.00E+00  9.12E-06  1.56E-04  1.56E-03  0.00000
    416.  24.038  8.60E-06  1.49E-04  1.45E-14  2.51E-13  0.00E+00  0.00E+00  8.60E-06  1.49E-04  1.58E-03  0.00000
    418.  23.923  7.07E-06  1.24E-04  6.77E-26  1.18E-24  0.00E+00  0.00E+00  7.07E-06  1.24E-04  1.59E-03  0.00000
    420.  23.810  7.20E-06  1.27E-04  2.15E-30  3.80E-29  0.00E+00  0.00E+00  7.20E-06  1.27E-04  1.61E-03  0.00000
    422.  23.697  8.25E-06  1.47E-04  1.26E-18  2.24E-17  0.00E+00  0.00E+00  8.25E-06  1.47E-04  1.62E-03  0.00000
    424.  23.585  8.39E-06  1.51E-04  1.08E-15  1.95E-14  0.00E+00  0.00E+00  8.39E-06  1.51E-04  1.64E-03  0.00000
    426.  23.474  8.48E-06  1.54E-04  1.40E-12  2.54E-11  0.00E+00  0.00E+00  8.48E-06  1.54E-04  1.66E-03  0.00000
    428.  23.364  9.51E-06  1.74E-04  6.13E-10  1.12E-08  0.00E+00  0.00E+00  9.51E-06  1.74E-04  1.68E-03  0.00005
    430.  23.256  9.10E-06  1.68E-04  2.92E-10  5.41E-09  0.00E+00  0.00E+00  9.10E-06  1.68E-04  1.70E-03  0.00002
    432.  23.148  8.88E-06  1.66E-04  4.96E-10  9.25E-09  0.00E+00  0.00E+00  8.88E-06  1.66E-04  1.71E-03  0.00004
    434.  23.041  9.50E-06  1.79E-04  5.46E-10  1.03E-08  0.00E+00  0.00E+00  9.50E-06  1.79E-04  1.73E-03  0.00004
    436.  22.936  8.86E-06  1.68E-04  4.71E-12  8.95E-11  0.00E+00  0.00E+00  8.86E-06  1.68E-04  1.75E-03  0.00000
    438.  22.831  9.76E-06  1.87E-04  2.31E-09  4.44E-08  0.00E+00  0.00E+00  9.76E-06  1.87E-04  1.77E-03  0.00019
    440.  22.727  9.57E-06  1.85E-04  1.57E-09  3.05E-08  0.00E+00  0.00E+00  9.57E-06  1.85E-04  1.79E-03  0.00013
    442.  22.624  7.86E-06  1.54E-04  5.01E-14  9.78E-13  0.00E+00  0.00E+00  7.86E-06  1.54E-04  1.80E-03  0.00000
    444.  22.523  8.79E-06  1.73E-04  3.84E-11  7.57E-10  0.00E+00  0.00E+00  8.79E-06  1.73E-04  1.82E-03  0.00000
    446.  22.422  9.18E-06  1.83E-04  3.90E-11  7.76E-10  0.00E+00  0.00E+00  9.18E-06  1.83E-04  1.84E-03  0.00000
    448.  22.321  9.77E-06  1.96E-04  6.66E-09  1.34E-07  0.00E+00  0.00E+00  9.78E-06  1.96E-04  1.86E-03  0.00053
    450.  22.222  1.00E-05  2.03E-04  7.51E-09  1.52E-07  0.00E+00  0.00E+00  1.00E-05  2.03E-04  1.88E-03  0.00060
    452.  22.124  9.12E-06  1.86E-04  5.67E-10  1.16E-08  0.00E+00  0.00E+00  9.13E-06  1.86E-04  1.90E-03  0.00004
    454.  22.026  9.35E-06  1.93E-04  5.22E-11  1.08E-09  0.00E+00  0.00E+00  9.35E-06  1.93E-04  1.92E-03  0.00000
    456.  21.930  8.67E-06  1.80E-04  6.31E-12  1.31E-10  0.00E+00  0.00E+00  8.67E-06  1.80E-04  1.93E-03  0.00000
    458.  21.834  7.46E-06  1.57E-04  1.22E-15  2.56E-14  0.00E+00  0.00E+00  7.46E-06  1.57E-04  1.95E-03  0.00000
    460.  21.739  9.36E-06  1.98E-04  3.37E-11  7.14E-10  0.00E+00  0.00E+00  9.36E-06  1.98E-04  1.97E-03  0.00000
    462.  21.645  9.90E-06  2.11E-04  8.03E-09  1.71E-07  0.00E+00  0.00E+00  9.91E-06  2.11E-04  1.99E-03  0.00063
    464.  21.552  1.04E-05  2.23E-04  5.50E-08  1.19E-06  0.00E+00  0.00E+00  1.04E-05  2.24E-04  2.01E-03  0.00431
    466.  21.459  1.02E-05  2.21E-04  3.94E-08  8.55E-07  0.00E+00  0.00E+00  1.02E-05  2.22E-04  2.03E-03  0.00308
    468.  21.368  9.28E-06  2.03E-04  4.04E-10  8.84E-09  0.00E+00  0.00E+00  9.28E-06  2.03E-04  2.05E-03  0.00003
    470.  21.277  9.70E-06  2.14E-04  1.22E-09  2.69E-08  0.00E+00  0.00E+00  9.70E-06  2.14E-04  2.07E-03  0.00009
    472.  21.186  7.83E-06  1.74E-04  2.19E-13  4.89E-12  0.00E+00  0.00E+00  7.83E-06  1.74E-04  2.08E-03  0.00000
    474.  21.097  9.03E-06  2.03E-04  2.02E-09  4.53E-08  0.00E+00  0.00E+00  9.03E-06  2.03E-04  2.10E-03  0.00016
    476.  21.008  1.01E-05  2.29E-04  1.82E-08  4.13E-07  0.00E+00  0.00E+00  1.01E-05  2.29E-04  2.12E-03  0.00141
    478.  20.921  1.06E-05  2.43E-04  1.97E-07  4.51E-06  0.00E+00  0.00E+00  1.08E-05  2.48E-04  2.14E-03  0.01529
    480.  20.833  1.04E-05  2.40E-04  1.52E-07  3.50E-06  0.00E+00  0.00E+00  1.06E-05  2.44E-04  2.16E-03  0.01174
    482.  20.747  9.89E-06  2.30E-04  1.47E-08  3.42E-07  0.00E+00  0.00E+00  9.91E-06  2.30E-04  2.18E-03  0.00114
    484.  20.661  8.56E-06  2.01E-04  1.16E-09  2.72E-08  0.00E+00  0.00E+00  8.56E-06  2.01E-04  2.20E-03  0.00009
    486.  20.576  9.96E-06  2.35E-04  1.87E-08  4.41E-07  0.00E+00  0.00E+00  9.97E-06  2.36E-04  2.22E-03  0.00144
    488.  20.492  1.07E-05  2.55E-04  3.17E-07  7.55E-06  0.00E+00  0.00E+00  1.10E-05  2.63E-04  2.24E-03  0.02436
    490.  20.408  1.06E-05  2.55E-04  2.14E-07  5.13E-06  0.00E+00  0.00E+00  1.08E-05  2.60E-04  2.26E-03  0.01643
    492.  20.325  9.26E-06  2.24E-04  5.20E-09  1.26E-07  0.00E+00  0.00E+00  9.26E-06  2.24E-04  2.28E-03  0.00040
    494.  20.243  1.04E-05  2.53E-04  1.80E-07  4.38E-06  0.00E+00  0.00E+00  1.06E-05  2.58E-04  2.30E-03  0.01375
    496.  20.161  1.06E-05  2.61E-04  7.84E-07  1.93E-05  0.00E+00  0.00E+00  1.14E-05  2.80E-04  2.33E-03  0.05997
    498.  20.080  1.06E-05  2.63E-04  8.01E-07  1.99E-05  0.00E+00  0.00E+00  1.14E-05  2.83E-04  2.35E-03  0.06119
1                                             RADIANCE(WATTS/CM2-STER-XXX)
0  FREQ   WAVLEN    PATH THERMAL      SURFACE EMISSION    SURFACE REFLECTED     TOTAL RADIANCE   INTEGRAL    TOTAL
  (CM-1) (MICRN)    (CM-1)   (MICRN)    (CM-1)   (MICRN)    (CM-1)   (MICRN)    (CM-1)   (MICRN)    (CM-1)   TRANS

    500.  20.000  1.05E-05  2.63E-04  2.23E-07  5.59E-06  0.00E+00  0.00E+00  1.08E-05  2.69E-04  2.37E-03  0.01706
    502.  19.920  8.84E-06  2.23E-04  3.62E-10  9.13E-09  0.00E+00  0.00E+00  8.84E-06  2.23E-04  2.39E-03  0.00003
    504.  19.841  9.93E-06  2.52E-04  8.52E-09  2.16E-07  0.00E+00  0.00E+00  9.94E-06  2.53E-04  2.41E-03  0.00065
    506.  19.763  9.18E-06  2.35E-04  6.41E-09  1.64E-07  0.00E+00  0.00E+00  9.18E-06  2.35E-04  2.43E-03  0.00049
    508.  19.685  9.78E-06  2.52E-04  8.19E-08  2.11E-06  0.00E+00  0.00E+00  9.86E-06  2.55E-04  2.45E-03  0.00622
    510.  19.608  1.04E-05  2.71E-04  1.17E-07  3.05E-06  0.00E+00  0.00E+00  1.05E-05  2.74E-04  2.47E-03  0.00890
    512.  19.531  1.04E-05  2.72E-04  3.49E-07  9.15E-06  0.00E+00  0.00E+00  1.07E-05  2.81E-04  2.49E-03  0.02649
    514.  19.455  1.06E-05  2.80E-04  3.57E-07  9.43E-06  0.00E+00  0.00E+00  1.09E-05  2.89E-04  2.51E-03  0.02706
    516.  19.380  9.44E-06  2.51E-04  7.74E-09  2.06E-07  0.00E+00  0.00E+00  9.45E-06  2.52E-04  2.53E-03  0.00059
    518.  19.305  8.77E-06  2.35E-04  1.14E-11  3.05E-10  0.00E+00  0.00E+00  8.77E-06  2.35E-04  2.55E-03  0.00000
    520.  19.231  9.28E-06  2.51E-04  1.21E-08  3.27E-07  0.00E+00  0.00E+00  9.29E-06  2.51E-04  2.57E-03  0.00091
    522.  19.157  1.08E-05  2.94E-04  4.49E-07  1.22E-05  0.00E+00  0.00E+00  1.12E-05  3.06E-04  2.59E-03  0.03395
    524.  19.084  1.04E-05  2.85E-04  2.22E-07  6.11E-06  0.00E+00  0.00E+00  1.06E-05  2.91E-04  2.61E-03  0.01680
    526.  19.011  9.00E-06  2.49E-04  5.23E-09  1.45E-07  0.00E+00  0.00E+00  9.01E-06  2.49E-04  2.63E-03  0.00039
    528.  18.939  1.06E-05  2.95E-04  6.39E-07  1.78E-05  0.00E+00  0.00E+00  1.12E-05  3.13E-04  2.65E-03  0.04821
    530.  18.868  9.92E-06  2.79E-04  1.87E-06  5.25E-05  0.00E+00  0.00E+00  1.18E-05  3.31E-04  2.67E-03  0.14078
    532.  18.797  9.62E-06  2.72E-04  2.31E-06  6.53E-05  0.00E+00  0.00E+00  1.19E-05  3.38E-04  2.70E-03  0.17391
    534.  18.727  1.04E-05  2.96E-04  1.10E-06  3.15E-05  0.00E+00  0.00E+00  1.15E-05  3.27E-04  2.72E-03  0.08313
    536.  18.657  9.78E-06  2.81E-04  3.23E-07  9.29E-06  0.00E+00  0.00E+00  1.01E-05  2.90E-04  2.74E-03  0.02434
    538.  18.587  1.00E-05  2.89E-04  1.57E-06  4.54E-05  0.00E+00  0.00E+00  1.16E-05  3.35E-04  2.76E-03  0.11805
    540.  18.519  9.78E-06  2.85E-04  1.59E-06  4.64E-05  0.00E+00  0.00E+00  1.14E-05  3.32E-04  2.79E-03  0.11970
    542.  18.450  1.01E-05  2.97E-04  1.10E-06  3.22E-05  0.00E+00  0.00E+00  1.12E-05  3.30E-04  2.81E-03  0.08234
    544.  18.382  9.97E-06  2.95E-04  8.03E-07  2.38E-05  0.00E+00  0.00E+00  1.08E-05  3.19E-04  2.83E-03  0.06032
    546.  18.315  9.09E-06  2.71E-04  4.39E-09  1.31E-07  0.00E+00  0.00E+00  9.10E-06  2.71E-04  2.85E-03  0.00033
    548.  18.248  1.00E-05  3.01E-04  3.25E-07  9.76E-06  0.00E+00  0.00E+00  1.04E-05  3.11E-04  2.87E-03  0.02441
    550.  18.182  1.01E-05  3.06E-04  3.92E-07  1.19E-05  0.00E+00  0.00E+00  1.05E-05  3.18E-04  2.89E-03  0.02943
    552.  18.116  9.97E-06  3.04E-04  1.60E-06  4.87E-05  0.00E+00  0.00E+00  1.16E-05  3.52E-04  2.91E-03  0.11983
    554.  18.051  1.00E-05  3.08E-04  9.55E-07  2.93E-05  0.00E+00  0.00E+00  1.10E-05  3.38E-04  2.94E-03  0.07170
    556.  17.986  9.59E-06  2.97E-04  1.58E-06  4.88E-05  0.00E+00  0.00E+00  1.12E-05  3.45E-04  2.96E-03  0.11841
    558.  17.921  9.45E-06  2.94E-04  2.36E-06  7.36E-05  0.00E+00  0.00E+00  1.18E-05  3.68E-04  2.98E-03  0.17730
    560.  17.857  8.76E-06  2.75E-04  3.30E-06  1.03E-04  0.00E+00  0.00E+00  1.21E-05  3.78E-04  3.01E-03  0.24742
    562.  17.794  8.97E-06  2.83E-04  2.50E-06  7.89E-05  0.00E+00  0.00E+00  1.15E-05  3.62E-04  3.03E-03  0.18726
    564.  17.730  9.95E-06  3.17E-04  9.80E-07  3.12E-05  0.00E+00  0.00E+00  1.09E-05  3.48E-04  3.05E-03  0.07350
    566.  17.668  9.72E-06  3.11E-04  1.03E-06  3.30E-05  0.00E+00  0.00E+00  1.07E-05  3.44E-04  3.07E-03  0.07731
    568.  17.606  9.26E-06  2.99E-04  9.81E-09  3.16E-07  0.00E+00  0.00E+00  9.27E-06  2.99E-04  3.09E-03  0.00074
    570.  17.544  9.56E-06  3.11E-04  7.48E-08  2.43E-06  0.00E+00  0.00E+00  9.63E-06  3.13E-04  3.11E-03  0.00561
    572.  17.483  9.94E-06  3.25E-04  1.25E-06  4.07E-05  0.00E+00  0.00E+00  1.12E-05  3.66E-04  3.13E-03  0.09342
    574.  17.422  9.46E-06  3.12E-04  1.97E-06  6.50E-05  0.00E+00  0.00E+00  1.14E-05  3.77E-04  3.16E-03  0.14802
    576.  17.361  9.35E-06  3.10E-04  1.36E-07  4.51E-06  0.00E+00  0.00E+00  9.49E-06  3.15E-04  3.17E-03  0.01020
    578.  17.301  9.75E-06  3.26E-04  9.85E-07  3.29E-05  0.00E+00  0.00E+00  1.07E-05  3.59E-04  3.20E-03  0.07391
    580.  17.241  9.47E-06  3.19E-04  3.99E-07  1.34E-05  0.00E+00  0.00E+00  9.87E-06  3.32E-04  3.22E-03  0.02993
    582.  17.182  9.46E-06  3.21E-04  4.30E-07  1.46E-05  0.00E+00  0.00E+00  9.89E-06  3.35E-04  3.24E-03  0.03226
    584.  17.123  9.59E-06  3.27E-04  6.38E-07  2.18E-05  0.00E+00  0.00E+00  1.02E-05  3.49E-04  3.26E-03  0.04789
    586.  17.065  9.03E-06  3.10E-04  9.61E-07  3.30E-05  0.00E+00  0.00E+00  9.99E-06  3.43E-04  3.28E-03  0.07218
    588.  17.007  8.24E-06  2.85E-04  1.61E-06  5.56E-05  0.00E+00  0.00E+00  9.85E-06  3.40E-04  3.30E-03  0.12080
    590.  16.949  8.17E-06  2.84E-04  1.62E-07  5.65E-06  0.00E+00  0.00E+00  8.33E-06  2.90E-04  3.31E-03  0.01221
    592.  16.892  8.30E-06  2.91E-04  2.30E-09  8.05E-08  0.00E+00  0.00E+00  8.30E-06  2.91E-04  3.33E-03  0.00017
    594.  16.835  8.47E-06  2.99E-04  3.99E-08  1.41E-06  0.00E+00  0.00E+00  8.51E-06  3.00E-04  3.35E-03  0.00300
    596.  16.779  7.95E-06  2.82E-04  2.44E-07  8.66E-06  0.00E+00  0.00E+00  8.19E-06  2.91E-04  3.36E-03  0.01836
    598.  16.722  7.86E-06  2.81E-04  4.69E-07  1.68E-05  0.00E+00  0.00E+00  8.32E-06  2.98E-04  3.38E-03  0.03530
1                                             RADIANCE(WATTS/CM2-STER-XXX)
0  FREQ   WAVLEN    PATH THERMAL      SURFACE EMISSION    SURFACE REFLECTED     TOTAL RADIANCE   INTEGRAL    TOTAL
  (CM-1) (MICRN)    (CM-1)   (MICRN)    (CM-1)   (MICRN)    (CM-1)   (MICRN)    (CM-1)   (MICRN)    (CM-1)   TRANS

    600.  16.667  8.41E-06  3.03E-04  3.65E-07  1.31E-05  0.00E+00  0.00E+00  8.77E-06  3.16E-04  3.40E-03  0.02747
    602.  16.611  8.08E-06  2.93E-04  4.64E-07  1.68E-05  0.00E+00  0.00E+00  8.55E-06  3.10E-04  3.41E-03  0.03499
    604.  16.556  8.13E-06  2.96E-04  3.06E-07  1.12E-05  0.00E+00  0.00E+00  8.43E-06  3.08E-04  3.43E-03  0.02311
    606.  16.502  7.55E-06  2.77E-04  3.90E-07  1.43E-05  0.00E+00  0.00E+00  7.94E-06  2.92E-04  3.45E-03  0.02942
    608.  16.447  7.52E-06  2.78E-04  4.18E-07  1.55E-05  0.00E+00  0.00E+00  7.94E-06  2.93E-04  3.46E-03  0.03158
    610.  16.393  7.87E-06  2.93E-04  5.09E-07  1.89E-05  0.00E+00  0.00E+00  8.38E-06  3.12E-04  3.48E-03  0.03847
    612.  16.340  7.90E-06  2.96E-04  5.14E-07  1.93E-05  0.00E+00  0.00E+00  8.41E-06  3.15E-04  3.50E-03  0.03887
    614.  16.287  7.48E-06  2.82E-04  1.59E-07  5.99E-06  0.00E+00  0.00E+00  7.64E-06  2.88E-04  3.51E-03  0.01201
    616.  16.234  6.31E-06  2.40E-04  1.81E-08  6.86E-07  0.00E+00  0.00E+00  6.33E-06  2.40E-04  3.52E-03  0.00137
    618.  16.181  5.84E-06  2.23E-04  2.79E-09  1.07E-07  0.00E+00  0.00E+00  5.84E-06  2.23E-04  3.54E-03  0.00021
    620.  16.129  7.50E-06  2.88E-04  1.23E-07  4.72E-06  0.00E+00  0.00E+00  7.62E-06  2.93E-04  3.55E-03  0.00931
    622.  16.077  7.12E-06  2.76E-04  1.58E-07  6.13E-06  0.00E+00  0.00E+00  7.28E-06  2.82E-04  3.57E-03  0.01202
    624.  16.026  6.49E-06  2.53E-04  7.32E-08  2.85E-06  0.00E+00  0.00E+00  6.56E-06  2.56E-04  3.58E-03  0.00556
    626.  15.974  6.36E-06  2.49E-04  2.17E-09  8.51E-08  0.00E+00  0.00E+00  6.36E-06  2.49E-04  3.59E-03  0.00017
    628.  15.924  5.89E-06  2.32E-04  8.25E-09  3.25E-07  0.00E+00  0.00E+00  5.90E-06  2.33E-04  3.60E-03  0.00063
    630.  15.873  5.73E-06  2.27E-04  4.70E-09  1.87E-07  0.00E+00  0.00E+00  5.74E-06  2.28E-04  3.61E-03  0.00036
    632.  15.823  5.52E-06  2.21E-04  1.15E-09  4.58E-08  0.00E+00  0.00E+00  5.53E-06  2.21E-04  3.63E-03  0.00009
    634.  15.773  5.35E-06  2.15E-04  7.44E-11  2.99E-09  0.00E+00  0.00E+00  5.35E-06  2.15E-04  3.64E-03  0.00001
    636.  15.723  5.17E-06  2.09E-04  1.70E-12  6.89E-11  0.00E+00  0.00E+00  5.17E-06  2.09E-04  3.65E-03  0.00000
    638.  15.674  5.07E-06  2.06E-04  1.05E-12  4.27E-11  0.00E+00  0.00E+00  5.07E-06  2.06E-04  3.66E-03  0.00000
    640.  15.625  5.02E-06  2.06E-04  1.96E-14  8.01E-13  0.00E+00  0.00E+00  5.02E-06  2.06E-04  3.67E-03  0.00000
    642.  15.576  4.94E-06  2.03E-04  6.65E-15  2.74E-13  0.00E+00  0.00E+00  4.94E-06  2.03E-04  3.68E-03  0.00000
    644.  15.528  4.99E-06  2.07E-04  5.96E-17  2.47E-15  0.00E+00  0.00E+00  4.99E-06  2.07E-04  3.69E-03  0.00000
    646.  15.480  5.03E-06  2.10E-04  2.69E-19  1.12E-17  0.00E+00  0.00E+00  5.03E-06  2.10E-04  3.70E-03  0.00000
    648.  15.432  5.20E-06  2.18E-04  1.36E-21  5.71E-20  0.00E+00  0.00E+00  5.20E-06  2.18E-04  3.71E-03  0.00000
    650.  15.385  5.31E-06  2.25E-04  1.52E-26  6.41E-25  0.00E+00  0.00E+00  5.31E-06  2.25E-04  3.72E-03  0.00000
    652.  15.337  5.06E-06  2.15E-04  1.79E-21  7.59E-20  0.00E+00  0.00E+00  5.06E-06  2.15E-04  3.73E-03  0.00000
    654.  15.291  4.94E-06  2.12E-04  7.09E-19  3.03E-17  0.00E+00  0.00E+00  4.94E-06  2.12E-04  3.74E-03  0.00000
    656.  15.244  4.94E-06  2.12E-04  7.10E-19  3.06E-17  0.00E+00  0.00E+00  4.94E-06  2.12E-04  3.75E-03  0.00000
    658.  15.198  5.01E-06  2.17E-04  2.89E-21  1.25E-19  0.00E+00  0.00E+00  5.01E-06  2.17E-04  3.76E-03  0.00000
    660.  15.152  4.95E-06  2.16E-04  1.00E-20  4.38E-19  0.00E+00  0.00E+00  4.95E-06  2.16E-04  3.77E-03  0.00000
    662.  15.106  5.10E-06  2.23E-04  8.95E-21  3.92E-19  0.00E+00  0.00E+00  5.10E-06  2.23E-04  3.78E-03  0.00000
    664.  15.060  5.13E-06  2.26E-04  4.16E-30  1.84E-28  0.00E+00  0.00E+00  5.13E-06  2.26E-04  3.79E-03  0.00000
    666.  15.015  5.29E-06  2.35E-04  0.00E+00  0.00E+00  0.00E+00  0.00E+00  5.29E-06  2.35E-04  3.80E-03  0.00000
    668.  14.970  6.98E-06  3.12E-04  0.00E+00  0.00E+00  0.00E+00  0.00E+00  6.98E-06  3.12E-04  3.81E-03  0.00000
    670.  14.925  5.48E-06  2.46E-04  1.98E-42  8.87E-41  0.00E+00  0.00E+00  5.48E-06  2.46E-04  3.82E-03  0.00000
    672.  14.881  4.87E-06  2.20E-04  3.74E-26  1.69E-24  0.00E+00  0.00E+00  4.87E-06  2.20E-04  3.83E-03  0.00000
    674.  14.837  4.89E-06  2.22E-04  2.81E-23  1.28E-21  0.00E+00  0.00E+00  4.89E-06  2.22E-04  3.84E-03  0.00000
    676.  14.793  4.79E-06  2.19E-04  4.75E-21  2.17E-19  0.00E+00  0.00E+00  4.79E-06  2.19E-04  3.85E-03  0.00000
    678.  14.749  4.88E-06  2.24E-04  8.92E-25  4.10E-23  0.00E+00  0.00E+00  4.88E-06  2.24E-04  3.86E-03  0.00000
    680.  14.706  4.75E-06  2.19E-04  3.73E-24  1.72E-22  0.00E+00  0.00E+00  4.75E-06  2.19E-04  3.87E-03  0.00000
    682.  14.663  4.80E-06  2.23E-04  1.10E-23  5.12E-22  0.00E+00  0.00E+00  4.80E-06  2.23E-04  3.88E-03  0.00000
    684.  14.620  4.67E-06  2.18E-04  4.79E-20  2.24E-18  0.00E+00  0.00E+00  4.67E-06  2.18E-04  3.89E-03  0.00000
    686.  14.577  4.68E-06  2.20E-04  1.90E-19  8.95E-18  0.00E+00  0.00E+00  4.68E-06  2.20E-04  3.90E-03  0.00000
    688.  14.535  4.56E-06  2.16E-04  9.31E-21  4.41E-19  0.00E+00  0.00E+00  4.56E-06  2.16E-04  3.91E-03  0.00000
    690.  14.493  4.62E-06  2.20E-04  7.60E-20  3.62E-18  0.00E+00  0.00E+00  4.62E-06  2.20E-04  3.92E-03  0.00000
    692.  14.451  4.47E-06  2.14E-04  9.89E-16  4.73E-14  0.00E+00  0.00E+00  4.47E-06  2.14E-04  3.93E-03  0.00000
    694.  14.409  4.49E-06  2.16E-04  4.52E-15  2.18E-13  0.00E+00  0.00E+00  4.49E-06  2.16E-04  3.94E-03  0.00000
    696.  14.368  4.42E-06  2.14E-04  1.21E-14  5.88E-13  0.00E+00  0.00E+00  4.42E-06  2.14E-04  3.95E-03  0.00000
    698.  14.327  4.55E-06  2.22E-04  1.90E-13  9.24E-12  0.00E+00  0.00E+00  4.55E-06  2.22E-04  3.95E-03  0.00000
1                                             RADIANCE(WATTS/CM2-STER-XXX)
0  FREQ   WAVLEN    PATH THERMAL      SURFACE EMISSION    SURFACE REFLECTED     TOTAL RADIANCE   INTEGRAL    TOTAL
  (CM-1) (MICRN)    (CM-1)   (MICRN)    (CM-1)   (MICRN)    (CM-1)   (MICRN)    (CM-1)   (MICRN)    (CM-1)   TRANS

    700.  14.286  4.66E-06  2.29E-04  7.33E-11  3.59E-09  0.00E+00  0.00E+00  4.66E-06  2.29E-04  3.96E-03  0.00001
    702.  14.245  4.63E-06  2.28E-04  6.03E-11  2.97E-09  0.00E+00  0.00E+00  4.63E-06  2.28E-04  3.97E-03  0.00000
    704.  14.205  4.89E-06  2.42E-04  1.74E-10  8.64E-09  0.00E+00  0.00E+00  4.89E-06  2.42E-04  3.98E-03  0.00001
    706.  14.164  5.30E-06  2.64E-04  2.53E-09  1.26E-07  0.00E+00  0.00E+00  5.30E-06  2.64E-04  3.99E-03  0.00020
    708.  14.124  5.37E-06  2.69E-04  1.01E-08  5.07E-07  0.00E+00  0.00E+00  5.38E-06  2.70E-04  4.00E-03  0.00081
    710.  14.085  5.56E-06  2.80E-04  3.95E-08  1.99E-06  0.00E+00  0.00E+00  5.59E-06  2.82E-04  4.02E-03  0.00318
    712.  14.045  5.84E-06  2.96E-04  9.90E-08  5.02E-06  0.00E+00  0.00E+00  5.93E-06  3.01E-04  4.03E-03  0.00798
    714.  14.006  6.03E-06  3.07E-04  9.28E-08  4.73E-06  0.00E+00  0.00E+00  6.12E-06  3.12E-04  4.04E-03  0.00750
    716.  13.966  6.29E-06  3.22E-04  2.58E-07  1.32E-05  0.00E+00  0.00E+00  6.54E-06  3.35E-04  4.05E-03  0.02088
    718.  13.928  5.50E-06  2.83E-04  6.82E-08  3.51E-06  0.00E+00  0.00E+00  5.57E-06  2.87E-04  4.06E-03  0.00552
    720.  13.889  4.51E-06  2.34E-04  2.90E-11  1.51E-09  0.00E+00  0.00E+00  4.51E-06  2.34E-04  4.07E-03  0.00000
    722.  13.850  6.00E-06  3.13E-04  3.93E-07  2.05E-05  0.00E+00  0.00E+00  6.39E-06  3.33E-04  4.09E-03  0.03198
    724.  13.812  6.39E-06  3.35E-04  8.96E-07  4.70E-05  0.00E+00  0.00E+00  7.29E-06  3.82E-04  4.10E-03  0.07312
    726.  13.774  6.30E-06  3.32E-04  1.92E-06  1.01E-04  0.00E+00  0.00E+00  8.22E-06  4.33E-04  4.12E-03  0.15667
    728.  13.736  6.56E-06  3.48E-04  1.13E-06  5.99E-05  0.00E+00  0.00E+00  7.69E-06  4.08E-04  4.13E-03  0.09257
    730.  13.699  6.37E-06  3.39E-04  4.52E-07  2.41E-05  0.00E+00  0.00E+00  6.82E-06  3.64E-04  4.15E-03  0.03709
    732.  13.661  6.26E-06  3.36E-04  5.78E-07  3.10E-05  0.00E+00  0.00E+00  6.84E-06  3.67E-04  4.16E-03  0.04753
    734.  13.624  6.52E-06  3.51E-04  1.05E-06  5.67E-05  0.00E+00  0.00E+00  7.57E-06  4.08E-04  4.17E-03  0.08676
    736.  13.587  6.18E-06  3.35E-04  9.20E-07  4.98E-05  0.00E+00  0.00E+00  7.10E-06  3.84E-04  4.19E-03  0.07597
    738.  13.550  6.20E-06  3.38E-04  7.65E-07  4.17E-05  0.00E+00  0.00E+00  6.97E-06  3.80E-04  4.20E-03  0.06330
    740.  13.514  6.51E-06  3.57E-04  6.36E-07  3.48E-05  0.00E+00  0.00E+00  7.15E-06  3.91E-04  4.22E-03  0.05272
    742.  13.477  5.67E-06  3.12E-04  7.28E-07  4.01E-05  0.00E+00  0.00E+00  6.40E-06  3.52E-04  4.23E-03  0.06059
    744.  13.441  6.50E-06  3.60E-04  1.53E-06  8.47E-05  0.00E+00  0.00E+00  8.03E-06  4.45E-04  4.25E-03  0.12738
    746.  13.405  6.07E-06  3.38E-04  2.90E-06  1.62E-04  0.00E+00  0.00E+00  8.98E-06  5.00E-04  4.26E-03  0.24223
    748.  13.369  6.22E-06  3.48E-04  2.35E-06  1.31E-04  0.00E+00  0.00E+00  8.56E-06  4.79E-04  4.28E-03  0.19642
    750.  13.333  5.81E-06  3.27E-04  3.11E-06  1.75E-04  0.00E+00  0.00E+00  8.92E-06  5.02E-04  4.30E-03  0.26034
    752.  13.298  5.82E-06  3.29E-04  3.73E-06  2.11E-04  0.00E+00  0.00E+00  9.56E-06  5.40E-04  4.32E-03  0.31376
    754.  13.263  6.54E-06  3.72E-04  2.55E-06  1.45E-04  0.00E+00  0.00E+00  9.09E-06  5.17E-04  4.34E-03  0.21445
    756.  13.228  6.19E-06  3.54E-04  3.22E-06  1.84E-04  0.00E+00  0.00E+00  9.41E-06  5.38E-04  4.35E-03  0.27169
    758.  13.193  4.46E-06  2.56E-04  5.84E-06  3.36E-04  0.00E+00  0.00E+00  1.03E-05  5.92E-04  4.38E-03  0.49419
    760.  13.158  4.36E-06  2.52E-04  6.11E-06  3.53E-04  0.00E+00  0.00E+00  1.05E-05  6.05E-04  4.40E-03  0.51819
    762.  13.123  3.88E-06  2.25E-04  6.81E-06  3.95E-04  0.00E+00  0.00E+00  1.07E-05  6.21E-04  4.42E-03  0.57863
    764.  13.089  3.19E-06  1.86E-04  7.78E-06  4.54E-04  0.00E+00  0.00E+00  1.10E-05  6.41E-04  4.44E-03  0.66308
    766.  13.055  3.39E-06  1.99E-04  7.53E-06  4.42E-04  0.00E+00  0.00E+00  1.09E-05  6.41E-04  4.46E-03  0.64335
    768.  13.021  3.69E-06  2.17E-04  7.19E-06  4.24E-04  0.00E+00  0.00E+00  1.09E-05  6.41E-04  4.48E-03  0.61515
    770.  12.987  4.17E-06  2.47E-04  6.57E-06  3.90E-04  0.00E+00  0.00E+00  1.07E-05  6.37E-04  4.50E-03  0.56385
    772.  12.953  2.71E-06  1.61E-04  8.42E-06  5.02E-04  0.00E+00  0.00E+00  1.11E-05  6.63E-04  4.53E-03  0.72397
    774.  12.920  2.78E-06  1.67E-04  8.33E-06  4.99E-04  0.00E+00  0.00E+00  1.11E-05  6.66E-04  4.55E-03  0.71823
    776.  12.887  4.97E-06  2.99E-04  5.48E-06  3.30E-04  0.00E+00  0.00E+00  1.05E-05  6.29E-04  4.57E-03  0.47351
    778.  12.853  3.83E-06  2.32E-04  6.92E-06  4.19E-04  0.00E+00  0.00E+00  1.07E-05  6.50E-04  4.59E-03  0.59946
    780.  12.821  2.99E-06  1.82E-04  7.99E-06  4.86E-04  0.00E+00  0.00E+00  1.10E-05  6.69E-04  4.61E-03  0.69438
    782.  12.788  2.49E-06  1.52E-04  8.60E-06  5.26E-04  0.00E+00  0.00E+00  1.11E-05  6.78E-04  4.64E-03  0.74852
    784.  12.755  4.79E-06  2.94E-04  5.46E-06  3.36E-04  0.00E+00  0.00E+00  1.03E-05  6.30E-04  4.66E-03  0.47696
    786.  12.723  2.68E-06  1.66E-04  8.34E-06  5.15E-04  0.00E+00  0.00E+00  1.10E-05  6.81E-04  4.68E-03  0.73025
    788.  12.690  2.19E-06  1.36E-04  8.89E-06  5.52E-04  0.00E+00  0.00E+00  1.11E-05  6.88E-04  4.70E-03  0.78030
    790.  12.658  2.33E-06  1.46E-04  8.64E-06  5.39E-04  0.00E+00  0.00E+00  1.10E-05  6.85E-04  4.72E-03  0.75969
    792.  12.626  4.15E-06  2.60E-04  5.77E-06  3.62E-04  0.00E+00  0.00E+00  9.92E-06  6.22E-04  4.74E-03  0.50881
    794.  12.594  4.28E-06  2.70E-04  6.18E-06  3.90E-04  0.00E+00  0.00E+00  1.05E-05  6.59E-04  4.76E-03  0.54653
    796.  12.563  4.72E-06  2.99E-04  5.34E-06  3.38E-04  0.00E+00  0.00E+00  1.01E-05  6.37E-04  4.78E-03  0.47335
    798.  12.531  5.01E-06  3.19E-04  5.02E-06  3.19E-04  0.00E+00  0.00E+00  1.00E-05  6.39E-04  4.80E-03  0.44581
1                                             RADIANCE(WATTS/CM2-STER-XXX)
0  FREQ   WAVLEN    PATH THERMAL      SURFACE EMISSION    SURFACE REFLECTED     TOTAL RADIANCE   INTEGRAL    TOTAL
  (CM-1) (MICRN)    (CM-1)   (MICRN)    (CM-1)   (MICRN)    (CM-1)   (MICRN)    (CM-1)   (MICRN)    (CM-1)   TRANS

    800.  12.500  3.62E-06  2.31E-04  6.71E-06  4.29E-04  0.00E+00  0.00E+00  1.03E-05  6.61E-04  4.82E-03  0.59823
    802.  12.469  2.81E-06  1.81E-04  7.90E-06  5.08E-04  0.00E+00  0.00E+00  1.07E-05  6.89E-04  4.85E-03  0.70598
    804.  12.438  3.94E-06  2.55E-04  6.44E-06  4.16E-04  0.00E+00  0.00E+00  1.04E-05  6.71E-04  4.87E-03  0.57686
    806.  12.407  2.44E-06  1.59E-04  8.31E-06  5.40E-04  0.00E+00  0.00E+00  1.08E-05  6.98E-04  4.89E-03  0.74668
    808.  12.376  3.63E-06  2.37E-04  6.75E-06  4.41E-04  0.00E+00  0.00E+00  1.04E-05  6.78E-04  4.91E-03  0.60856
    810.  12.346  2.06E-06  1.35E-04  8.72E-06  5.72E-04  0.00E+00  0.00E+00  1.08E-05  7.07E-04  4.93E-03  0.78791
    812.  12.315  2.01E-06  1.33E-04  8.74E-06  5.77E-04  0.00E+00  0.00E+00  1.08E-05  7.09E-04  4.95E-03  0.79229
    814.  12.285  3.51E-06  2.33E-04  6.88E-06  4.56E-04  0.00E+00  0.00E+00  1.04E-05  6.89E-04  4.97E-03  0.62483
    816.  12.255  2.48E-06  1.65E-04  8.12E-06  5.41E-04  0.00E+00  0.00E+00  1.06E-05  7.06E-04  4.99E-03  0.74025
    818.  12.225  1.81E-06  1.21E-04  8.91E-06  5.96E-04  0.00E+00  0.00E+00  1.07E-05  7.17E-04  5.01E-03  0.81386
    820.  12.195  1.79E-06  1.21E-04  8.90E-06  5.99E-04  0.00E+00  0.00E+00  1.07E-05  7.19E-04  5.04E-03  0.81568
    822.  12.165  1.77E-06  1.20E-04  8.90E-06  6.01E-04  0.00E+00  0.00E+00  1.07E-05  7.21E-04  5.06E-03  0.81768
    824.  12.136  2.03E-06  1.38E-04  8.54E-06  5.80E-04  0.00E+00  0.00E+00  1.06E-05  7.18E-04  5.08E-03  0.78676
    826.  12.107  2.24E-06  1.53E-04  8.27E-06  5.64E-04  0.00E+00  0.00E+00  1.05E-05  7.17E-04  5.10E-03  0.76445
    828.  12.077  3.10E-06  2.12E-04  7.18E-06  4.92E-04  0.00E+00  0.00E+00  1.03E-05  7.04E-04  5.12E-03  0.66552
    830.  12.048  1.70E-06  1.17E-04  8.86E-06  6.11E-04  0.00E+00  0.00E+00  1.06E-05  7.28E-04  5.14E-03  0.82394
    832.  12.019  1.66E-06  1.15E-04  8.88E-06  6.15E-04  0.00E+00  0.00E+00  1.05E-05  7.30E-04  5.16E-03  0.82829
    834.  11.990  1.65E-06  1.15E-04  8.86E-06  6.16E-04  0.00E+00  0.00E+00  1.05E-05  7.31E-04  5.18E-03  0.82822
    836.  11.962  1.87E-06  1.31E-04  8.58E-06  5.99E-04  0.00E+00  0.00E+00  1.04E-05  7.30E-04  5.20E-03  0.80429
    838.  11.933  1.70E-06  1.20E-04  8.73E-06  6.13E-04  0.00E+00  0.00E+00  1.04E-05  7.33E-04  5.23E-03  0.82114
    840.  11.905  2.96E-06  2.09E-04  7.15E-06  5.05E-04  0.00E+00  0.00E+00  1.01E-05  7.13E-04  5.25E-03  0.67495
    842.  11.876  1.98E-06  1.41E-04  8.30E-06  5.89E-04  0.00E+00  0.00E+00  1.03E-05  7.29E-04  5.27E-03  0.78560
    844.  11.848  1.63E-06  1.16E-04  8.69E-06  6.19E-04  0.00E+00  0.00E+00  1.03E-05  7.35E-04  5.29E-03  0.82470
    846.  11.820  1.65E-06  1.18E-04  8.62E-06  6.17E-04  0.00E+00  0.00E+00  1.03E-05  7.35E-04  5.31E-03  0.82073
    848.  11.792  1.69E-06  1.22E-04  8.54E-06  6.14E-04  0.00E+00  0.00E+00  1.02E-05  7.36E-04  5.33E-03  0.81559
    850.  11.765  2.72E-06  1.96E-04  7.20E-06  5.20E-04  0.00E+00  0.00E+00  9.91E-06  7.16E-04  5.35E-03  0.68936
    852.  11.737  3.86E-06  2.80E-04  5.72E-06  4.15E-04  0.00E+00  0.00E+00  9.58E-06  6.95E-04  5.37E-03  0.54897
    854.  11.710  2.86E-06  2.09E-04  7.04E-06  5.14E-04  0.00E+00  0.00E+00  9.90E-06  7.22E-04  5.39E-03  0.67876
    856.  11.682  2.11E-06  1.54E-04  7.92E-06  5.80E-04  0.00E+00  0.00E+00  1.00E-05  7.34E-04  5.41E-03  0.76559
    858.  11.655  1.59E-06  1.17E-04  8.53E-06  6.28E-04  0.00E+00  0.00E+00  1.01E-05  7.45E-04  5.43E-03  0.82722
    860.  11.628  1.64E-06  1.21E-04  8.44E-06  6.24E-04  0.00E+00  0.00E+00  1.01E-05  7.45E-04  5.45E-03  0.82132
    862.  11.601  1.48E-06  1.10E-04  8.59E-06  6.38E-04  0.00E+00  0.00E+00  1.01E-05  7.48E-04  5.47E-03  0.83782
    864.  11.574  1.90E-06  1.42E-04  8.04E-06  6.00E-04  0.00E+00  0.00E+00  9.94E-06  7.42E-04  5.49E-03  0.78653
    866.  11.547  1.93E-06  1.44E-04  7.97E-06  5.98E-04  0.00E+00  0.00E+00  9.90E-06  7.43E-04  5.51E-03  0.78324
    868.  11.521  1.46E-06  1.10E-04  8.49E-06  6.40E-04  0.00E+00  0.00E+00  9.96E-06  7.50E-04  5.53E-03  0.83682
    870.  11.494  1.84E-06  1.39E-04  7.97E-06  6.03E-04  0.00E+00  0.00E+00  9.81E-06  7.43E-04  5.55E-03  0.78792
    872.  11.468  1.90E-06  1.44E-04  7.87E-06  5.98E-04  0.00E+00  0.00E+00  9.77E-06  7.43E-04  5.57E-03  0.78040
    874.  11.442  1.44E-06  1.10E-04  8.43E-06  6.44E-04  0.00E+00  0.00E+00  9.86E-06  7.53E-04  5.59E-03  0.83813
    876.  11.416  1.45E-06  1.12E-04  8.37E-06  6.42E-04  0.00E+00  0.00E+00  9.82E-06  7.54E-04  5.61E-03  0.83544
    878.  11.390  1.77E-06  1.37E-04  7.92E-06  6.11E-04  0.00E+00  0.00E+00  9.69E-06  7.47E-04  5.62E-03  0.79297
    880.  11.364  1.84E-06  1.42E-04  7.81E-06  6.04E-04  0.00E+00  0.00E+00  9.64E-06  7.47E-04  5.64E-03  0.78423
    882.  11.338  1.63E-06  1.27E-04  8.04E-06  6.25E-04  0.00E+00  0.00E+00  9.67E-06  7.53E-04  5.66E-03  0.81021
    884.  11.312  2.07E-06  1.62E-04  7.46E-06  5.83E-04  0.00E+00  0.00E+00  9.53E-06  7.44E-04  5.68E-03  0.75413
    886.  11.287  1.84E-06  1.45E-04  7.67E-06  6.02E-04  0.00E+00  0.00E+00  9.51E-06  7.46E-04  5.70E-03  0.77766
    888.  11.261  2.09E-06  1.65E-04  7.33E-06  5.78E-04  0.00E+00  0.00E+00  9.42E-06  7.43E-04  5.72E-03  0.74643
    890.  11.236  1.81E-06  1.44E-04  7.68E-06  6.09E-04  0.00E+00  0.00E+00  9.50E-06  7.52E-04  5.74E-03  0.78494
    892.  11.211  1.47E-06  1.17E-04  8.05E-06  6.41E-04  0.00E+00  0.00E+00  9.53E-06  7.58E-04  5.76E-03  0.82555
    894.  11.186  1.35E-06  1.08E-04  8.17E-06  6.53E-04  0.00E+00  0.00E+00  9.53E-06  7.61E-04  5.78E-03  0.84054
    896.  11.161  1.38E-06  1.11E-04  8.07E-06  6.48E-04  0.00E+00  0.00E+00  9.46E-06  7.59E-04  5.80E-03  0.83311
    898.  11.136  1.46E-06  1.17E-04  8.00E-06  6.45E-04  0.00E+00  0.00E+00  9.45E-06  7.62E-04  5.81E-03  0.82805
1                                             RADIANCE(WATTS/CM2-STER-XXX)
0  FREQ   WAVLEN    PATH THERMAL      SURFACE EMISSION    SURFACE REFLECTED     TOTAL RADIANCE   INTEGRAL    TOTAL
  (CM-1) (MICRN)    (CM-1)   (MICRN)    (CM-1)   (MICRN)    (CM-1)   (MICRN)    (CM-1)   (MICRN)    (CM-1)   TRANS

    900.  11.111  1.33E-06  1.07E-04  8.12E-06  6.57E-04  0.00E+00  0.00E+00  9.44E-06  7.65E-04  5.83E-03  0.84328
    902.  11.086  1.33E-06  1.08E-04  8.08E-06  6.57E-04  0.00E+00  0.00E+00  9.41E-06  7.66E-04  5.85E-03  0.84230
    904.  11.062  1.34E-06  1.10E-04  8.03E-06  6.56E-04  0.00E+00  0.00E+00  9.37E-06  7.66E-04  5.87E-03  0.84013
    906.  11.038  1.61E-06  1.32E-04  7.67E-06  6.30E-04  0.00E+00  0.00E+00  9.29E-06  7.62E-04  5.89E-03  0.80556
    908.  11.013  1.90E-06  1.57E-04  7.25E-06  5.98E-04  0.00E+00  0.00E+00  9.15E-06  7.54E-04  5.91E-03  0.76357
    910.  10.989  1.86E-06  1.54E-04  7.26E-06  6.01E-04  0.00E+00  0.00E+00  9.12E-06  7.55E-04  5.93E-03  0.76739
    912.  10.965  1.35E-06  1.12E-04  7.88E-06  6.55E-04  0.00E+00  0.00E+00  9.23E-06  7.68E-04  5.94E-03  0.83596
    914.  10.941  1.48E-06  1.24E-04  7.69E-06  6.43E-04  0.00E+00  0.00E+00  9.17E-06  7.66E-04  5.96E-03  0.81913
    916.  10.917  1.31E-06  1.10E-04  7.86E-06  6.59E-04  0.00E+00  0.00E+00  9.17E-06  7.70E-04  5.98E-03  0.83951
    918.  10.893  1.50E-06  1.27E-04  7.61E-06  6.41E-04  0.00E+00  0.00E+00  9.11E-06  7.68E-04  6.00E-03  0.81551
    920.  10.870  1.39E-06  1.17E-04  7.71E-06  6.53E-04  0.00E+00  0.00E+00  9.10E-06  7.70E-04  6.02E-03  0.82958
    922.  10.846  2.06E-06  1.75E-04  6.82E-06  5.80E-04  0.00E+00  0.00E+00  8.87E-06  7.54E-04  6.04E-03  0.73616
    924.  10.823  1.69E-06  1.44E-04  7.26E-06  6.20E-04  0.00E+00  0.00E+00  8.95E-06  7.64E-04  6.05E-03  0.78662
    926.  10.799  1.62E-06  1.39E-04  7.31E-06  6.26E-04  0.00E+00  0.00E+00  8.92E-06  7.65E-04  6.07E-03  0.79462
    928.  10.776  1.37E-06  1.18E-04  7.59E-06  6.54E-04  0.00E+00  0.00E+00  8.96E-06  7.72E-04  6.09E-03  0.82888
    930.  10.753  1.38E-06  1.19E-04  7.55E-06  6.53E-04  0.00E+00  0.00E+00  8.92E-06  7.72E-04  6.11E-03  0.82654
    932.  10.730  1.34E-06  1.16E-04  7.56E-06  6.56E-04  0.00E+00  0.00E+00  8.90E-06  7.73E-04  6.13E-03  0.83077
    934.  10.707  1.31E-06  1.14E-04  7.57E-06  6.60E-04  0.00E+00  0.00E+00  8.88E-06  7.74E-04  6.14E-03  0.83500
    936.  10.684  1.32E-06  1.16E-04  7.53E-06  6.59E-04  0.00E+00  0.00E+00  8.85E-06  7.75E-04  6.16E-03  0.83370
    938.  10.661  1.32E-06  1.16E-04  7.49E-06  6.59E-04  0.00E+00  0.00E+00  8.81E-06  7.75E-04  6.18E-03  0.83280
    940.  10.638  1.37E-06  1.21E-04  7.39E-06  6.53E-04  0.00E+00  0.00E+00  8.76E-06  7.74E-04  6.20E-03  0.82458
    942.  10.616  1.44E-06  1.27E-04  7.26E-06  6.44E-04  0.00E+00  0.00E+00  8.69E-06  7.71E-04  6.21E-03  0.81269
    944.  10.593  1.41E-06  1.26E-04  7.27E-06  6.48E-04  0.00E+00  0.00E+00  8.68E-06  7.73E-04  6.23E-03  0.81687
    946.  10.571  1.43E-06  1.28E-04  7.21E-06  6.45E-04  0.00E+00  0.00E+00  8.64E-06  7.73E-04  6.25E-03  0.81344
    948.  10.549  2.05E-06  1.84E-04  6.34E-06  5.70E-04  0.00E+00  0.00E+00  8.38E-06  7.53E-04  6.26E-03  0.71766
    950.  10.526  1.34E-06  1.21E-04  7.25E-06  6.54E-04  0.00E+00  0.00E+00  8.59E-06  7.75E-04  6.28E-03  0.82385
    952.  10.504  1.43E-06  1.29E-04  7.11E-06  6.44E-04  0.00E+00  0.00E+00  8.53E-06  7.73E-04  6.30E-03  0.81081
    954.  10.482  1.57E-06  1.43E-04  6.90E-06  6.28E-04  0.00E+00  0.00E+00  8.47E-06  7.71E-04  6.32E-03  0.79011
    956.  10.460  1.54E-06  1.41E-04  6.90E-06  6.30E-04  0.00E+00  0.00E+00  8.43E-06  7.71E-04  6.33E-03  0.79297
    958.  10.438  1.26E-06  1.15E-04  7.23E-06  6.64E-04  0.00E+00  0.00E+00  8.49E-06  7.79E-04  6.35E-03  0.83450
    960.  10.417  1.30E-06  1.20E-04  7.17E-06  6.61E-04  0.00E+00  0.00E+00  8.47E-06  7.80E-04  6.37E-03  0.83029
    962.  10.395  1.19E-06  1.11E-04  7.25E-06  6.71E-04  0.00E+00  0.00E+00  8.45E-06  7.82E-04  6.38E-03  0.84318
    964.  10.373  1.19E-06  1.11E-04  7.21E-06  6.70E-04  0.00E+00  0.00E+00  8.40E-06  7.81E-04  6.40E-03  0.84146
    966.  10.352  1.42E-06  1.33E-04  6.87E-06  6.41E-04  0.00E+00  0.00E+00  8.29E-06  7.74E-04  6.42E-03  0.80515
    968.  10.331  1.38E-06  1.29E-04  6.87E-06  6.44E-04  0.00E+00  0.00E+00  8.25E-06  7.73E-04  6.43E-03  0.80862
    970.  10.309  1.39E-06  1.31E-04  6.83E-06  6.43E-04  0.00E+00  0.00E+00  8.22E-06  7.74E-04  6.45E-03  0.80664
    972.  10.288  1.72E-06  1.62E-04  6.35E-06  6.00E-04  0.00E+00  0.00E+00  8.07E-06  7.63E-04  6.47E-03  0.75336
    974.  10.267  1.57E-06  1.49E-04  6.53E-06  6.19E-04  0.00E+00  0.00E+00  8.10E-06  7.69E-04  6.48E-03  0.77721
    976.  10.246  1.74E-06  1.66E-04  6.24E-06  5.95E-04  0.00E+00  0.00E+00  7.99E-06  7.61E-04  6.50E-03  0.74607
    978.  10.225  1.37E-06  1.31E-04  6.69E-06  6.40E-04  0.00E+00  0.00E+00  8.06E-06  7.71E-04  6.51E-03  0.80227
    980.  10.204  1.25E-06  1.20E-04  6.80E-06  6.53E-04  0.00E+00  0.00E+00  8.05E-06  7.73E-04  6.53E-03  0.81903
    982.  10.183  1.26E-06  1.21E-04  6.73E-06  6.49E-04  0.00E+00  0.00E+00  7.99E-06  7.70E-04  6.55E-03  0.81368
    984.  10.163  1.27E-06  1.23E-04  6.68E-06  6.46E-04  0.00E+00  0.00E+00  7.95E-06  7.70E-04  6.56E-03  0.81039
    986.  10.142  1.14E-06  1.10E-04  6.77E-06  6.58E-04  0.00E+00  0.00E+00  7.90E-06  7.68E-04  6.58E-03  0.82475
    988.  10.121  1.15E-06  1.12E-04  6.67E-06  6.51E-04  0.00E+00  0.00E+00  7.82E-06  7.63E-04  6.59E-03  0.81642
    990.  10.101  1.16E-06  1.14E-04  6.57E-06  6.43E-04  0.00E+00  0.00E+00  7.73E-06  7.57E-04  6.61E-03  0.80645
    992.  10.081  1.16E-06  1.14E-04  6.43E-06  6.33E-04  0.00E+00  0.00E+00  7.59E-06  7.47E-04  6.62E-03  0.79343
    994.  10.060  1.17E-06  1.16E-04  6.31E-06  6.23E-04  0.00E+00  0.00E+00  7.48E-06  7.39E-04  6.64E-03  0.78095
    996.  10.040  1.19E-06  1.18E-04  6.14E-06  6.09E-04  0.00E+00  0.00E+00  7.33E-06  7.27E-04  6.65E-03  0.76293
    998.  10.020  1.31E-06  1.31E-04  5.79E-06  5.76E-04  0.00E+00  0.00E+00  7.10E-06  7.07E-04  6.67E-03  0.72219
1                                             RADIANCE(WATTS/CM2-STER-XXX)
0  FREQ   WAVLEN    PATH THERMAL      SURFACE EMISSION    SURFACE REFLECTED     TOTAL RADIANCE   INTEGRAL    TOTAL
  (CM-1) (MICRN)    (CM-1)   (MICRN)    (CM-1)   (MICRN)    (CM-1)   (MICRN)    (CM-1)   (MICRN)    (CM-1)   TRANS

   1000.  10.000  1.48E-06  1.48E-04  5.45E-06  5.45E-04  0.00E+00  0.00E+00  6.92E-06  6.92E-04  6.68E-03  0.68251
   1002.   9.980  1.33E-06  1.33E-04  5.35E-06  5.37E-04  0.00E+00  0.00E+00  6.67E-06  6.70E-04  6.70E-03  0.67262
   1004.   9.960  1.49E-06  1.50E-04  4.99E-06  5.03E-04  0.00E+00  0.00E+00  6.48E-06  6.54E-04  6.71E-03  0.63069
   1006.   9.940  1.42E-06  1.43E-04  4.77E-06  4.83E-04  0.00E+00  0.00E+00  6.19E-06  6.26E-04  6.72E-03  0.60530
   1008.   9.921  1.44E-06  1.46E-04  4.62E-06  4.69E-04  0.00E+00  0.00E+00  6.05E-06  6.15E-04  6.73E-03  0.58807
   1010.   9.901  1.75E-06  1.78E-04  3.99E-06  4.07E-04  0.00E+00  0.00E+00  5.73E-06  5.85E-04  6.74E-03  0.50976
   1012.   9.881  1.62E-06  1.66E-04  3.89E-06  3.99E-04  0.00E+00  0.00E+00  5.51E-06  5.64E-04  6.76E-03  0.50006
   1014.   9.862  1.87E-06  1.92E-04  3.31E-06  3.41E-04  0.00E+00  0.00E+00  5.18E-06  5.33E-04  6.77E-03  0.42715
   1016.   9.843  1.61E-06  1.66E-04  3.54E-06  3.66E-04  0.00E+00  0.00E+00  5.15E-06  5.32E-04  6.78E-03  0.45883
   1018.   9.823  1.83E-06  1.89E-04  2.92E-06  3.03E-04  0.00E+00  0.00E+00  4.75E-06  4.92E-04  6.79E-03  0.37963
   1020.   9.804  1.64E-06  1.71E-04  2.99E-06  3.11E-04  0.00E+00  0.00E+00  4.63E-06  4.82E-04  6.79E-03  0.39010
   1022.   9.785  1.67E-06  1.74E-04  2.75E-06  2.88E-04  0.00E+00  0.00E+00  4.42E-06  4.62E-04  6.80E-03  0.36119
   1024.   9.766  1.65E-06  1.73E-04  2.66E-06  2.79E-04  0.00E+00  0.00E+00  4.31E-06  4.52E-04  6.81E-03  0.34999
   1026.   9.747  1.63E-06  1.72E-04  2.73E-06  2.87E-04  0.00E+00  0.00E+00  4.36E-06  4.59E-04  6.82E-03  0.36102
   1028.   9.728  1.87E-06  1.98E-04  2.34E-06  2.47E-04  0.00E+00  0.00E+00  4.21E-06  4.45E-04  6.83E-03  0.31090
   1030.   9.709  1.82E-06  1.93E-04  2.25E-06  2.38E-04  0.00E+00  0.00E+00  4.06E-06  4.31E-04  6.84E-03  0.29960
   1032.   9.690  1.68E-06  1.79E-04  2.52E-06  2.69E-04  0.00E+00  0.00E+00  4.20E-06  4.47E-04  6.85E-03  0.33797
   1034.   9.671  1.64E-06  1.75E-04  2.49E-06  2.66E-04  0.00E+00  0.00E+00  4.13E-06  4.41E-04  6.85E-03  0.33494
   1036.   9.653  1.67E-06  1.80E-04  2.23E-06  2.40E-04  0.00E+00  0.00E+00  3.91E-06  4.19E-04  6.86E-03  0.30178
   1038.   9.634  1.74E-06  1.88E-04  2.00E-06  2.16E-04  0.00E+00  0.00E+00  3.74E-06  4.03E-04  6.87E-03  0.27130
   1040.   9.615  1.77E-06  1.92E-04  1.72E-06  1.86E-04  0.00E+00  0.00E+00  3.49E-06  3.78E-04  6.88E-03  0.23440
   1042.   9.597  1.54E-06  1.67E-04  3.21E-06  3.49E-04  0.00E+00  0.00E+00  4.75E-06  5.16E-04  6.89E-03  0.43980
   1044.   9.579  1.35E-06  1.47E-04  4.52E-06  4.93E-04  0.00E+00  0.00E+00  5.87E-06  6.40E-04  6.90E-03  0.62107
   1046.   9.560  1.51E-06  1.65E-04  2.97E-06  3.25E-04  0.00E+00  0.00E+00  4.48E-06  4.90E-04  6.91E-03  0.40993
   1048.   9.542  1.68E-06  1.85E-04  2.00E-06  2.19E-04  0.00E+00  0.00E+00  3.68E-06  4.04E-04  6.91E-03  0.27680
   1050.   9.524  1.78E-06  1.97E-04  1.75E-06  1.93E-04  0.00E+00  0.00E+00  3.54E-06  3.90E-04  6.92E-03  0.24425
   1052.   9.506  1.75E-06  1.94E-04  1.54E-06  1.70E-04  0.00E+00  0.00E+00  3.29E-06  3.64E-04  6.93E-03  0.21529
   1054.   9.488  1.72E-06  1.91E-04  1.55E-06  1.72E-04  0.00E+00  0.00E+00  3.27E-06  3.63E-04  6.93E-03  0.21789
   1056.   9.470  1.78E-06  1.99E-04  1.46E-06  1.62E-04  0.00E+00  0.00E+00  3.24E-06  3.61E-04  6.94E-03  0.20541
   1058.   9.452  1.68E-06  1.88E-04  1.86E-06  2.08E-04  0.00E+00  0.00E+00  3.54E-06  3.97E-04  6.95E-03  0.26351
   1060.   9.434  1.72E-06  1.94E-04  2.15E-06  2.41E-04  0.00E+00  0.00E+00  3.87E-06  4.35E-04  6.96E-03  0.30536
   1062.   9.416  1.63E-06  1.84E-04  2.56E-06  2.89E-04  0.00E+00  0.00E+00  4.19E-06  4.72E-04  6.96E-03  0.36546
   1064.   9.398  1.49E-06  1.69E-04  3.39E-06  3.84E-04  0.00E+00  0.00E+00  4.88E-06  5.53E-04  6.97E-03  0.48691
   1066.   9.381  2.05E-06  2.33E-04  3.21E-06  3.65E-04  0.00E+00  0.00E+00  5.26E-06  5.98E-04  6.98E-03  0.46245
   1068.   9.363  1.37E-06  1.56E-04  4.57E-06  5.21E-04  0.00E+00  0.00E+00  5.94E-06  6.77E-04  7.00E-03  0.66143
   1070.   9.346  1.25E-06  1.44E-04  5.02E-06  5.75E-04  0.00E+00  0.00E+00  6.28E-06  7.19E-04  7.01E-03  0.73034
   1072.   9.328  1.34E-06  1.54E-04  5.06E-06  5.81E-04  0.00E+00  0.00E+00  6.40E-06  7.36E-04  7.02E-03  0.73891
   1074.   9.311  1.89E-06  2.18E-04  4.31E-06  4.97E-04  0.00E+00  0.00E+00  6.20E-06  7.15E-04  7.03E-03  0.63199
   1076.   9.294  1.46E-06  1.69E-04  4.80E-06  5.56E-04  0.00E+00  0.00E+00  6.26E-06  7.25E-04  7.05E-03  0.70761
   1078.   9.276  1.20E-06  1.39E-04  5.21E-06  6.05E-04  0.00E+00  0.00E+00  6.40E-06  7.44E-04  7.06E-03  0.77064
   1080.   9.259  1.31E-06  1.53E-04  4.93E-06  5.75E-04  0.00E+00  0.00E+00  6.25E-06  7.29E-04  7.07E-03  0.73326
   1082.   9.242  1.28E-06  1.50E-04  4.97E-06  5.82E-04  0.00E+00  0.00E+00  6.25E-06  7.31E-04  7.08E-03  0.74180
   1084.   9.225  1.21E-06  1.42E-04  5.12E-06  6.01E-04  0.00E+00  0.00E+00  6.33E-06  7.43E-04  7.10E-03  0.76762
   1086.   9.208  1.26E-06  1.48E-04  4.98E-06  5.88E-04  0.00E+00  0.00E+00  6.24E-06  7.36E-04  7.11E-03  0.75079
   1088.   9.191  1.17E-06  1.38E-04  5.06E-06  5.99E-04  0.00E+00  0.00E+00  6.23E-06  7.38E-04  7.12E-03  0.76636
   1090.   9.174  1.41E-06  1.67E-04  4.75E-06  5.65E-04  0.00E+00  0.00E+00  6.16E-06  7.32E-04  7.13E-03  0.72248
   1092.   9.158  1.45E-06  1.73E-04  4.70E-06  5.60E-04  0.00E+00  0.00E+00  6.15E-06  7.33E-04  7.15E-03  0.71797
   1094.   9.141  1.03E-06  1.24E-04  5.17E-06  6.19E-04  0.00E+00  0.00E+00  6.20E-06  7.42E-04  7.16E-03  0.79320
   1096.   9.124  1.01E-06  1.21E-04  5.21E-06  6.26E-04  0.00E+00  0.00E+00  6.22E-06  7.47E-04  7.17E-03  0.80379
   1098.   9.107  1.05E-06  1.27E-04  5.12E-06  6.18E-04  0.00E+00  0.00E+00  6.18E-06  7.45E-04  7.18E-03  0.79336
1                                             RADIANCE(WATTS/CM2-STER-XXX)
0  FREQ   WAVLEN    PATH THERMAL      SURFACE EMISSION    SURFACE REFLECTED     TOTAL RADIANCE   INTEGRAL    TOTAL
  (CM-1) (MICRN)    (CM-1)   (MICRN)    (CM-1)   (MICRN)    (CM-1)   (MICRN)    (CM-1)   (MICRN)    (CM-1)   TRANS

   1100.   9.091  1.89E-06  2.29E-04  3.96E-06  4.79E-04  0.00E+00  0.00E+00  5.85E-06  7.08E-04  7.19E-03  0.61615
   1102.   9.074  1.42E-06  1.73E-04  4.55E-06  5.53E-04  0.00E+00  0.00E+00  5.97E-06  7.26E-04  7.21E-03  0.71182
   1104.   9.058  1.02E-06  1.24E-04  5.10E-06  6.21E-04  0.00E+00  0.00E+00  6.11E-06  7.45E-04  7.22E-03  0.79997
   1106.   9.042  1.59E-06  1.94E-04  4.31E-06  5.27E-04  0.00E+00  0.00E+00  5.90E-06  7.21E-04  7.23E-03  0.67946
   1108.   9.025  1.44E-06  1.77E-04  4.45E-06  5.46E-04  0.00E+00  0.00E+00  5.89E-06  7.23E-04  7.24E-03  0.70473
   1110.   9.009  1.09E-06  1.35E-04  4.92E-06  6.06E-04  0.00E+00  0.00E+00  6.01E-06  7.40E-04  7.25E-03  0.78239
   1112.   8.993  1.81E-06  2.24E-04  3.83E-06  4.74E-04  0.00E+00  0.00E+00  5.64E-06  6.98E-04  7.27E-03  0.61266
   1114.   8.977  9.79E-07  1.21E-04  4.96E-06  6.16E-04  0.00E+00  0.00E+00  5.94E-06  7.37E-04  7.28E-03  0.79706
   1116.   8.961  9.58E-07  1.19E-04  4.96E-06  6.18E-04  0.00E+00  0.00E+00  5.92E-06  7.37E-04  7.29E-03  0.80101
   1118.   8.945  1.10E-06  1.38E-04  4.70E-06  5.88E-04  0.00E+00  0.00E+00  5.80E-06  7.25E-04  7.30E-03  0.76253
   1120.   8.929  1.53E-06  1.92E-04  4.07E-06  5.10E-04  0.00E+00  0.00E+00  5.60E-06  7.03E-04  7.31E-03  0.66262
   1122.   8.913  1.61E-06  2.03E-04  3.91E-06  4.93E-04  0.00E+00  0.00E+00  5.53E-06  6.96E-04  7.32E-03  0.64064
   1124.   8.897  9.62E-07  1.22E-04  4.77E-06  6.03E-04  0.00E+00  0.00E+00  5.74E-06  7.25E-04  7.34E-03  0.78478
   1126.   8.881  9.19E-07  1.17E-04  4.81E-06  6.10E-04  0.00E+00  0.00E+00  5.73E-06  7.26E-04  7.35E-03  0.79460
   1128.   8.865  9.01E-07  1.15E-04  4.83E-06  6.14E-04  0.00E+00  0.00E+00  5.73E-06  7.29E-04  7.36E-03  0.80157
   1130.   8.850  9.35E-07  1.19E-04  4.75E-06  6.07E-04  0.00E+00  0.00E+00  5.69E-06  7.27E-04  7.37E-03  0.79295
   1132.   8.834  9.53E-07  1.22E-04  4.73E-06  6.07E-04  0.00E+00  0.00E+00  5.69E-06  7.29E-04  7.38E-03  0.79313
   1134.   8.818  1.41E-06  1.82E-04  4.12E-06  5.30E-04  0.00E+00  0.00E+00  5.54E-06  7.12E-04  7.39E-03  0.69359
   1136.   8.803  2.80E-06  3.61E-04  1.87E-06  2.41E-04  0.00E+00  0.00E+00  4.67E-06  6.02E-04  7.40E-03  0.31567
   1138.   8.787  1.64E-06  2.12E-04  3.73E-06  4.83E-04  0.00E+00  0.00E+00  5.37E-06  6.96E-04  7.41E-03  0.63446
   1140.   8.772  9.54E-07  1.24E-04  4.65E-06  6.05E-04  0.00E+00  0.00E+00  5.61E-06  7.29E-04  7.42E-03  0.79452
   1142.   8.757  1.00E-06  1.31E-04  4.55E-06  5.94E-04  0.00E+00  0.00E+00  5.56E-06  7.25E-04  7.43E-03  0.78138
   1144.   8.741  9.11E-07  1.19E-04  4.62E-06  6.05E-04  0.00E+00  0.00E+00  5.53E-06  7.24E-04  7.45E-03  0.79667
   1146.   8.726  9.24E-07  1.21E-04  4.57E-06  6.00E-04  0.00E+00  0.00E+00  5.49E-06  7.22E-04  7.46E-03  0.79165
   1148.   8.711  1.35E-06  1.78E-04  3.91E-06  5.16E-04  0.00E+00  0.00E+00  5.27E-06  6.94E-04  7.47E-03  0.68084
   1150.   8.696  1.56E-06  2.06E-04  3.63E-06  4.80E-04  0.00E+00  0.00E+00  5.19E-06  6.86E-04  7.48E-03  0.63475
   1152.   8.681  1.97E-06  2.61E-04  3.01E-06  3.99E-04  0.00E+00  0.00E+00  4.98E-06  6.61E-04  7.49E-03  0.52886
   1154.   8.666  1.04E-06  1.39E-04  4.28E-06  5.70E-04  0.00E+00  0.00E+00  5.32E-06  7.09E-04  7.50E-03  0.75547
   1156.   8.651  8.98E-07  1.20E-04  4.42E-06  5.90E-04  0.00E+00  0.00E+00  5.32E-06  7.10E-04  7.51E-03  0.78389
   1158.   8.636  8.67E-07  1.16E-04  4.44E-06  5.95E-04  0.00E+00  0.00E+00  5.30E-06  7.11E-04  7.52E-03  0.79078
   1160.   8.621  8.55E-07  1.15E-04  4.42E-06  5.95E-04  0.00E+00  0.00E+00  5.28E-06  7.10E-04  7.53E-03  0.79229
   1162.   8.606  8.61E-07  1.16E-04  4.41E-06  5.96E-04  0.00E+00  0.00E+00  5.27E-06  7.12E-04  7.54E-03  0.79454
   1164.   8.591  1.41E-06  1.91E-04  3.61E-06  4.89E-04  0.00E+00  0.00E+00  5.02E-06  6.81E-04  7.55E-03  0.65315
   1166.   8.576  1.90E-06  2.58E-04  2.93E-06  3.98E-04  0.00E+00  0.00E+00  4.83E-06  6.56E-04  7.56E-03  0.53266
   1168.   8.562  8.11E-07  1.11E-04  4.48E-06  6.11E-04  0.00E+00  0.00E+00  5.29E-06  7.21E-04  7.57E-03  0.81789
   1170.   8.547  8.72E-07  1.19E-04  4.36E-06  5.97E-04  0.00E+00  0.00E+00  5.23E-06  7.16E-04  7.58E-03  0.80023
   1172.   8.532  1.06E-06  1.45E-04  4.06E-06  5.57E-04  0.00E+00  0.00E+00  5.11E-06  7.03E-04  7.59E-03  0.74807
   1174.   8.518  2.67E-06  3.69E-04  1.57E-06  2.16E-04  0.00E+00  0.00E+00  4.24E-06  5.85E-04  7.60E-03  0.29028
   1176.   8.503  1.74E-06  2.40E-04  2.85E-06  3.94E-04  0.00E+00  0.00E+00  4.58E-06  6.34E-04  7.61E-03  0.53053
   1178.   8.489  9.44E-07  1.31E-04  4.09E-06  5.67E-04  0.00E+00  0.00E+00  5.03E-06  6.98E-04  7.62E-03  0.76546
   1180.   8.475  9.49E-07  1.32E-04  4.06E-06  5.65E-04  0.00E+00  0.00E+00  5.01E-06  6.97E-04  7.63E-03  0.76372
   1182.   8.460  8.42E-07  1.18E-04  4.18E-06  5.84E-04  0.00E+00  0.00E+00  5.02E-06  7.01E-04  7.64E-03  0.78991
   1184.   8.446  9.36E-07  1.31E-04  4.02E-06  5.63E-04  0.00E+00  0.00E+00  4.96E-06  6.95E-04  7.65E-03  0.76356
   1186.   8.432  1.63E-06  2.30E-04  2.90E-06  4.08E-04  0.00E+00  0.00E+00  4.53E-06  6.37E-04  7.66E-03  0.55315
   1188.   8.418  2.25E-06  3.17E-04  2.08E-06  2.94E-04  0.00E+00  0.00E+00  4.33E-06  6.11E-04  7.67E-03  0.40007
   1190.   8.403  9.55E-07  1.35E-04  3.96E-06  5.61E-04  0.00E+00  0.00E+00  4.92E-06  6.96E-04  7.68E-03  0.76385
   1192.   8.389  8.08E-07  1.15E-04  4.13E-06  5.87E-04  0.00E+00  0.00E+00  4.94E-06  7.02E-04  7.69E-03  0.80048
   1194.   8.375  8.14E-07  1.16E-04  4.11E-06  5.86E-04  0.00E+00  0.00E+00  4.93E-06  7.02E-04  7.70E-03  0.80105
   1196.   8.361  8.34E-07  1.19E-04  4.08E-06  5.84E-04  0.00E+00  0.00E+00  4.92E-06  7.03E-04  7.71E-03  0.79921
   1198.   8.347  2.03E-06  2.91E-04  2.16E-06  3.10E-04  0.00E+00  0.00E+00  4.19E-06  6.01E-04  7.71E-03  0.42471
1                                             RADIANCE(WATTS/CM2-STER-XXX)
0  FREQ   WAVLEN    PATH THERMAL      SURFACE EMISSION    SURFACE REFLECTED     TOTAL RADIANCE   INTEGRAL    TOTAL
  (CM-1) (MICRN)    (CM-1)   (MICRN)    (CM-1)   (MICRN)    (CM-1)   (MICRN)    (CM-1)   (MICRN)    (CM-1)   TRANS

   1200.   8.333  1.05E-06  1.51E-04  3.77E-06  5.43E-04  0.00E+00  0.00E+00  4.82E-06  6.94E-04  7.72E-03  0.74640
   1202.   8.319  5.73E-07  8.28E-05  4.35E-06  6.29E-04  0.00E+00  0.00E+00  4.92E-06  7.11E-04  7.73E-03  0.86459
   1204.   8.306  5.33E-07  7.73E-05  4.37E-06  6.34E-04  0.00E+00  0.00E+00  4.91E-06  7.11E-04  7.74E-03  0.87325
   1206.   8.292  9.33E-07  1.36E-04  3.81E-06  5.55E-04  0.00E+00  0.00E+00  4.75E-06  6.90E-04  7.75E-03  0.76559
   1208.   8.278  7.07E-07  1.03E-04  4.11E-06  5.99E-04  0.00E+00  0.00E+00  4.81E-06  7.03E-04  7.76E-03  0.82865
   1210.   8.264  1.33E-06  1.95E-04  3.16E-06  4.63E-04  0.00E+00  0.00E+00  4.49E-06  6.58E-04  7.77E-03  0.64098
   1212.   8.251  2.68E-06  3.94E-04  8.53E-07  1.25E-04  0.00E+00  0.00E+00  3.54E-06  5.20E-04  7.78E-03  0.17385
   1214.   8.237  1.56E-06  2.30E-04  2.92E-06  4.30E-04  0.00E+00  0.00E+00  4.48E-06  6.60E-04  7.79E-03  0.59796
   1216.   8.224  8.65E-07  1.28E-04  3.79E-06  5.61E-04  0.00E+00  0.00E+00  4.66E-06  6.89E-04  7.80E-03  0.78109
   1218.   8.210  1.61E-06  2.38E-04  2.65E-06  3.94E-04  0.00E+00  0.00E+00  4.26E-06  6.32E-04  7.81E-03  0.54876
   1220.   8.197  1.57E-06  2.33E-04  2.66E-06  3.96E-04  0.00E+00  0.00E+00  4.23E-06  6.29E-04  7.81E-03  0.55382
   1222.   8.183  1.11E-06  1.66E-04  3.37E-06  5.03E-04  0.00E+00  0.00E+00  4.48E-06  6.70E-04  7.82E-03  0.70455
   1224.   8.170  1.69E-06  2.54E-04  2.33E-06  3.50E-04  0.00E+00  0.00E+00  4.03E-06  6.03E-04  7.83E-03  0.48997
   1226.   8.157  2.38E-06  3.57E-04  1.24E-06  1.86E-04  0.00E+00  0.00E+00  3.61E-06  5.43E-04  7.84E-03  0.26136
   1228.   8.143  8.53E-07  1.29E-04  3.66E-06  5.52E-04  0.00E+00  0.00E+00  4.51E-06  6.81E-04  7.85E-03  0.77718
   1230.   8.130  6.17E-07  9.34E-05  3.93E-06  5.95E-04  0.00E+00  0.00E+00  4.55E-06  6.88E-04  7.86E-03  0.83914
   1232.   8.117  4.99E-07  7.58E-05  4.06E-06  6.16E-04  0.00E+00  0.00E+00  4.56E-06  6.92E-04  7.87E-03  0.87032
   1234.   8.104  5.12E-07  7.79E-05  4.02E-06  6.12E-04  0.00E+00  0.00E+00  4.53E-06  6.90E-04  7.87E-03  0.86580
   1236.   8.091  8.99E-07  1.37E-04  3.45E-06  5.27E-04  0.00E+00  0.00E+00  4.35E-06  6.64E-04  7.88E-03  0.74663
   1238.   8.078  1.18E-06  1.81E-04  3.04E-06  4.66E-04  0.00E+00  0.00E+00  4.22E-06  6.47E-04  7.89E-03  0.66270
   1240.   8.065  1.38E-06  2.13E-04  2.76E-06  4.24E-04  0.00E+00  0.00E+00  4.14E-06  6.37E-04  7.90E-03  0.60417
   1242.   8.052  1.33E-06  2.05E-04  2.81E-06  4.34E-04  0.00E+00  0.00E+00  4.14E-06  6.39E-04  7.91E-03  0.61812
   1244.   8.039  2.43E-06  3.76E-04  6.82E-07  1.06E-04  0.00E+00  0.00E+00  3.11E-06  4.81E-04  7.91E-03  0.15072
   1246.   8.026  1.44E-06  2.23E-04  2.54E-06  3.94E-04  0.00E+00  0.00E+00  3.98E-06  6.18E-04  7.92E-03  0.56502
   1248.   8.013  1.27E-06  1.99E-04  2.74E-06  4.27E-04  0.00E+00  0.00E+00  4.02E-06  6.26E-04  7.93E-03  0.61279
   1250.   8.000  1.07E-06  1.68E-04  2.89E-06  4.52E-04  0.00E+00  0.00E+00  3.97E-06  6.20E-04  7.94E-03  0.64953
   1252.   7.987  1.58E-06  2.48E-04  2.06E-06  3.24E-04  0.00E+00  0.00E+00  3.64E-06  5.71E-04  7.95E-03  0.46631
   1254.   7.974  1.46E-06  2.30E-04  2.09E-06  3.29E-04  0.00E+00  0.00E+00  3.55E-06  5.58E-04  7.95E-03  0.47422
   1256.   7.962  1.40E-06  2.21E-04  2.17E-06  3.43E-04  0.00E+00  0.00E+00  3.57E-06  5.64E-04  7.96E-03  0.49540
   1258.   7.949  1.95E-06  3.09E-04  1.25E-06  1.97E-04  0.00E+00  0.00E+00  3.20E-06  5.07E-04  7.97E-03  0.28567
   1260.   7.937  2.04E-06  3.24E-04  8.11E-08  1.29E-05  0.00E+00  0.00E+00  2.12E-06  3.37E-04  7.97E-03  0.01867
   1262.   7.924  1.92E-06  3.06E-04  9.92E-07  1.58E-04  0.00E+00  0.00E+00  2.91E-06  4.64E-04  7.98E-03  0.23026
   1264.   7.911  1.92E-06  3.06E-04  8.76E-07  1.40E-04  0.00E+00  0.00E+00  2.79E-06  4.46E-04  7.98E-03  0.20387
   1266.   7.899  2.06E-06  3.30E-04  2.45E-07  3.92E-05  0.00E+00  0.00E+00  2.31E-06  3.70E-04  7.99E-03  0.05725
   1268.   7.886  1.91E-06  3.07E-04  4.05E-08  6.52E-06  0.00E+00  0.00E+00  1.95E-06  3.13E-04  7.99E-03  0.00953
   1270.   7.874  1.91E-06  3.08E-04  2.15E-08  3.47E-06  0.00E+00  0.00E+00  1.93E-06  3.12E-04  7.99E-03  0.00509
   1272.   7.862  1.74E-06  2.82E-04  6.16E-08  9.97E-06  0.00E+00  0.00E+00  1.80E-06  2.91E-04  8.00E-03  0.01470
   1274.   7.849  1.75E-06  2.84E-04  6.83E-07  1.11E-04  0.00E+00  0.00E+00  2.43E-06  3.95E-04  8.00E-03  0.16345
   1276.   7.837  1.37E-06  2.22E-04  1.33E-06  2.16E-04  0.00E+00  0.00E+00  2.69E-06  4.39E-04  8.01E-03  0.31976
   1278.   7.825  1.34E-06  2.20E-04  1.50E-06  2.44E-04  0.00E+00  0.00E+00  2.84E-06  4.64E-04  8.01E-03  0.36193
   1280.   7.813  1.86E-06  3.05E-04  5.54E-07  9.08E-05  0.00E+00  0.00E+00  2.42E-06  3.96E-04  8.02E-03  0.13451
   1282.   7.800  1.61E-06  2.65E-04  1.14E-06  1.88E-04  0.00E+00  0.00E+00  2.76E-06  4.53E-04  8.02E-03  0.27920
   1284.   7.788  1.84E-06  3.04E-04  1.02E-06  1.69E-04  0.00E+00  0.00E+00  2.87E-06  4.73E-04  8.03E-03  0.25154
   1286.   7.776  1.98E-06  3.27E-04  6.81E-07  1.13E-04  0.00E+00  0.00E+00  2.66E-06  4.40E-04  8.04E-03  0.16791
   1288.   7.764  1.79E-06  2.97E-04  3.13E-08  5.20E-06  0.00E+00  0.00E+00  1.82E-06  3.02E-04  8.04E-03  0.00779
   1290.   7.752  1.88E-06  3.13E-04  3.63E-07  6.04E-05  0.00E+00  0.00E+00  2.24E-06  3.73E-04  8.04E-03  0.09056
   1292.   7.740  1.65E-06  2.76E-04  7.04E-07  1.18E-04  0.00E+00  0.00E+00  2.36E-06  3.94E-04  8.05E-03  0.17690
   1294.   7.728  1.53E-06  2.56E-04  9.03E-07  1.51E-04  0.00E+00  0.00E+00  2.43E-06  4.07E-04  8.05E-03  0.22772
   1296.   7.716  1.67E-06  2.81E-04  2.28E-07  3.83E-05  0.00E+00  0.00E+00  1.90E-06  3.19E-04  8.06E-03  0.05781
   1298.   7.704  1.51E-06  2.54E-04  7.09E-07  1.19E-04  0.00E+00  0.00E+00  2.22E-06  3.73E-04  8.06E-03  0.18097
1                                             RADIANCE(WATTS/CM2-STER-XXX)
0  FREQ   WAVLEN    PATH THERMAL      SURFACE EMISSION    SURFACE REFLECTED     TOTAL RADIANCE   INTEGRAL    TOTAL
  (CM-1) (MICRN)    (CM-1)   (MICRN)    (CM-1)   (MICRN)    (CM-1)   (MICRN)    (CM-1)   (MICRN)    (CM-1)   TRANS

   1300.   7.692  1.36E-06  2.29E-04  1.05E-06  1.78E-04  0.00E+00  0.00E+00  2.41E-06  4.07E-04  8.07E-03  0.26999
   1302.   7.680  1.34E-06  2.27E-04  1.05E-06  1.79E-04  0.00E+00  0.00E+00  2.39E-06  4.06E-04  8.07E-03  0.27191
   1304.   7.669  1.46E-06  2.49E-04  1.01E-06  1.71E-04  0.00E+00  0.00E+00  2.47E-06  4.20E-04  8.08E-03  0.26110
   1306.   7.657  1.86E-06  3.18E-04  3.88E-07  6.62E-05  0.00E+00  0.00E+00  2.25E-06  3.84E-04  8.08E-03  0.10113
   1308.   7.645  1.75E-06  3.00E-04  1.09E-07  1.87E-05  0.00E+00  0.00E+00  1.86E-06  3.18E-04  8.08E-03  0.02851
   1310.   7.634  2.05E-06  3.52E-04  2.88E-07  4.94E-05  0.00E+00  0.00E+00  2.34E-06  4.02E-04  8.09E-03  0.07586
   1312.   7.622  1.64E-06  2.83E-04  6.00E-08  1.03E-05  0.00E+00  0.00E+00  1.70E-06  2.93E-04  8.09E-03  0.01585
   1314.   7.610  1.48E-06  2.56E-04  6.93E-10  1.20E-07  0.00E+00  0.00E+00  1.48E-06  2.56E-04  8.10E-03  0.00019
   1316.   7.599  1.63E-06  2.82E-04  6.79E-10  1.18E-07  0.00E+00  0.00E+00  1.63E-06  2.82E-04  8.10E-03  0.00018
   1318.   7.587  1.40E-06  2.43E-04  1.49E-10  2.60E-08  0.00E+00  0.00E+00  1.40E-06  2.43E-04  8.10E-03  0.00004
   1320.   7.576  1.41E-06  2.45E-04  2.36E-10  4.11E-08  0.00E+00  0.00E+00  1.41E-06  2.45E-04  8.10E-03  0.00006
   1322.   7.564  2.06E-06  3.60E-04  1.65E-07  2.88E-05  0.00E+00  0.00E+00  2.23E-06  3.89E-04  8.11E-03  0.04495
   1324.   7.553  2.15E-06  3.76E-04  3.55E-07  6.22E-05  0.00E+00  0.00E+00  2.50E-06  4.38E-04  8.11E-03  0.09730
   1326.   7.541  2.04E-06  3.58E-04  6.75E-07  1.19E-04  0.00E+00  0.00E+00  2.71E-06  4.77E-04  8.12E-03  0.18590
   1328.   7.530  2.11E-06  3.72E-04  4.20E-07  7.40E-05  0.00E+00  0.00E+00  2.53E-06  4.46E-04  8.12E-03  0.11601
   1330.   7.519  1.99E-06  3.51E-04  3.46E-07  6.11E-05  0.00E+00  0.00E+00  2.33E-06  4.12E-04  8.13E-03  0.09630
   1332.   7.508  2.06E-06  3.65E-04  5.10E-07  9.04E-05  0.00E+00  0.00E+00  2.57E-06  4.56E-04  8.13E-03  0.14243
   1334.   7.496  2.15E-06  3.82E-04  1.77E-07  3.16E-05  0.00E+00  0.00E+00  2.33E-06  4.14E-04  8.14E-03  0.04988
   1336.   7.485  1.68E-06  2.99E-04  2.13E-08  3.80E-06  0.00E+00  0.00E+00  1.70E-06  3.03E-04  8.14E-03  0.00600
   1338.   7.474  1.19E-06  2.13E-04  5.09E-13  9.12E-11  0.00E+00  0.00E+00  1.19E-06  2.13E-04  8.14E-03  0.00000
   1340.   7.463  9.44E-07  1.69E-04  2.46E-17  4.42E-15  0.00E+00  0.00E+00  9.44E-07  1.69E-04  8.15E-03  0.00000
   1342.   7.452  1.86E-06  3.35E-04  3.10E-08  5.58E-06  0.00E+00  0.00E+00  1.89E-06  3.40E-04  8.15E-03  0.00894
   1344.   7.440  2.10E-06  3.80E-04  1.50E-07  2.72E-05  0.00E+00  0.00E+00  2.25E-06  4.07E-04  8.15E-03  0.04351
   1346.   7.429  2.10E-06  3.81E-04  2.40E-07  4.35E-05  0.00E+00  0.00E+00  2.34E-06  4.25E-04  8.16E-03  0.06983
   1348.   7.418  1.86E-06  3.39E-04  1.09E-07  1.99E-05  0.00E+00  0.00E+00  1.97E-06  3.58E-04  8.16E-03  0.03193
   1350.   7.407  1.63E-06  2.97E-04  5.75E-08  1.05E-05  0.00E+00  0.00E+00  1.69E-06  3.08E-04  8.17E-03  0.01694
   1352.   7.396  2.08E-06  3.80E-04  1.61E-07  2.95E-05  0.00E+00  0.00E+00  2.24E-06  4.09E-04  8.17E-03  0.04763
   1354.   7.386  1.66E-06  3.04E-04  4.62E-08  8.47E-06  0.00E+00  0.00E+00  1.71E-06  3.13E-04  8.17E-03  0.01369
   1356.   7.375  1.74E-06  3.21E-04  2.22E-08  4.08E-06  0.00E+00  0.00E+00  1.77E-06  3.25E-04  8.18E-03  0.00665
   1358.   7.364  1.74E-06  3.21E-04  1.87E-08  3.45E-06  0.00E+00  0.00E+00  1.76E-06  3.25E-04  8.18E-03  0.00561
   1360.   7.353  1.52E-06  2.81E-04  8.67E-10  1.60E-07  0.00E+00  0.00E+00  1.52E-06  2.81E-04  8.18E-03  0.00026
   1362.   7.342  9.37E-07  1.74E-04  3.89E-14  7.22E-12  0.00E+00  0.00E+00  9.37E-07  1.74E-04  8.19E-03  0.00000
   1364.   7.331  1.10E-06  2.05E-04  3.33E-11  6.20E-09  0.00E+00  0.00E+00  1.10E-06  2.05E-04  8.19E-03  0.00001
   1366.   7.321  1.76E-06  3.28E-04  3.98E-09  7.44E-07  0.00E+00  0.00E+00  1.76E-06  3.29E-04  8.19E-03  0.00123
   1368.   7.310  1.31E-06  2.45E-04  1.46E-09  2.72E-07  0.00E+00  0.00E+00  1.31E-06  2.45E-04  8.19E-03  0.00045
   1370.   7.299  1.36E-06  2.54E-04  7.53E-11  1.41E-08  0.00E+00  0.00E+00  1.36E-06  2.54E-04  8.20E-03  0.00002
   1372.   7.289  1.24E-06  2.34E-04  4.93E-11  9.28E-09  0.00E+00  0.00E+00  1.24E-06  2.34E-04  8.20E-03  0.00002
   1374.   7.278  7.61E-07  1.44E-04  9.51E-16  1.79E-13  0.00E+00  0.00E+00  7.61E-07  1.44E-04  8.20E-03  0.00000
   1376.   7.267  1.03E-06  1.94E-04  4.23E-12  8.01E-10  0.00E+00  0.00E+00  1.03E-06  1.94E-04  8.20E-03  0.00000
   1378.   7.257  1.27E-06  2.42E-04  1.26E-11  2.40E-09  0.00E+00  0.00E+00  1.27E-06  2.42E-04  8.21E-03  0.00000
   1380.   7.246  1.35E-06  2.57E-04  2.10E-09  4.00E-07  0.00E+00  0.00E+00  1.35E-06  2.58E-04  8.21E-03  0.00067
   1382.   7.236  1.60E-06  3.06E-04  4.01E-09  7.66E-07  0.00E+00  0.00E+00  1.61E-06  3.07E-04  8.21E-03  0.00129
   1384.   7.225  1.53E-06  2.93E-04  1.15E-09  2.21E-07  0.00E+00  0.00E+00  1.53E-06  2.94E-04  8.21E-03  0.00037
   1386.   7.215  1.01E-06  1.95E-04  3.10E-12  5.96E-10  0.00E+00  0.00E+00  1.01E-06  1.95E-04  8.22E-03  0.00000
   1388.   7.205  7.63E-07  1.47E-04  8.41E-16  1.62E-13  0.00E+00  0.00E+00  7.63E-07  1.47E-04  8.22E-03  0.00000
   1390.   7.194  1.19E-06  2.30E-04  3.08E-13  5.95E-11  0.00E+00  0.00E+00  1.19E-06  2.30E-04  8.22E-03  0.00000
   1392.   7.184  1.15E-06  2.23E-04  7.44E-14  1.44E-11  0.00E+00  0.00E+00  1.15E-06  2.23E-04  8.22E-03  0.00000
   1394.   7.174  6.74E-07  1.31E-04  6.52E-17  1.27E-14  0.00E+00  0.00E+00  6.74E-07  1.31E-04  8.22E-03  0.00000
   1396.   7.163  7.56E-07  1.47E-04  9.66E-21  1.88E-18  0.00E+00  0.00E+00  7.56E-07  1.47E-04  8.23E-03  0.00000
   1398.   7.153  7.64E-07  1.49E-04  8.06E-14  1.57E-11  0.00E+00  0.00E+00  7.64E-07  1.49E-04  8.23E-03  0.00000
1                                             RADIANCE(WATTS/CM2-STER-XXX)
0  FREQ   WAVLEN    PATH THERMAL      SURFACE EMISSION    SURFACE REFLECTED     TOTAL RADIANCE   INTEGRAL    TOTAL
  (CM-1) (MICRN)    (CM-1)   (MICRN)    (CM-1)   (MICRN)    (CM-1)   (MICRN)    (CM-1)   (MICRN)    (CM-1)   TRANS

   1400.   7.143  7.61E-07  1.49E-04  8.06E-14  1.58E-11  0.00E+00  0.00E+00  7.61E-07  1.49E-04  8.23E-03  0.00000
   1402.   7.133  1.20E-06  2.35E-04  4.14E-13  8.15E-11  0.00E+00  0.00E+00  1.20E-06  2.35E-04  8.23E-03  0.00000
   1404.   7.123  8.39E-07  1.65E-04  3.00E-12  5.91E-10  0.00E+00  0.00E+00  8.39E-07  1.65E-04  8.23E-03  0.00000
   1406.   7.112  1.03E-06  2.04E-04  8.09E-12  1.60E-09  0.00E+00  0.00E+00  1.03E-06  2.04E-04  8.24E-03  0.00000
   1408.   7.102  1.36E-06  2.70E-04  1.44E-10  2.86E-08  0.00E+00  0.00E+00  1.36E-06  2.70E-04  8.24E-03  0.00005
   1410.   7.092  1.14E-06  2.26E-04  7.60E-12  1.51E-09  0.00E+00  0.00E+00  1.14E-06  2.26E-04  8.24E-03  0.00000
   1412.   7.082  1.04E-06  2.06E-04  1.33E-11  2.65E-09  0.00E+00  0.00E+00  1.04E-06  2.06E-04  8.24E-03  0.00000
   1414.   7.072  1.20E-06  2.41E-04  1.54E-11  3.08E-09  0.00E+00  0.00E+00  1.20E-06  2.41E-04  8.24E-03  0.00001
   1416.   7.062  8.28E-07  1.66E-04  1.44E-14  2.90E-12  0.00E+00  0.00E+00  8.28E-07  1.66E-04  8.25E-03  0.00000
   1418.   7.052  5.91E-07  1.19E-04  2.03E-29  4.08E-27  0.00E+00  0.00E+00  5.91E-07  1.19E-04  8.25E-03  0.00000
   1420.   7.042  4.96E-07  9.99E-05  9.81E-44  1.98E-41  0.00E+00  0.00E+00  4.96E-07  9.99E-05  8.25E-03  0.00000
   1422.   7.032  8.30E-07  1.68E-04  1.49E-22  3.00E-20  0.00E+00  0.00E+00  8.30E-07  1.68E-04  8.25E-03  0.00000
   1424.   7.022  6.36E-07  1.29E-04  8.79E-18  1.78E-15  0.00E+00  0.00E+00  6.36E-07  1.29E-04  8.25E-03  0.00000
   1426.   7.013  1.00E-06  2.04E-04  6.44E-15  1.31E-12  0.00E+00  0.00E+00  1.00E-06  2.04E-04  8.25E-03  0.00000
   1428.   7.003  8.59E-07  1.75E-04  4.01E-15  8.19E-13  0.00E+00  0.00E+00  8.59E-07  1.75E-04  8.26E-03  0.00000
   1430.   6.993  6.17E-07  1.26E-04  2.01E-14  4.11E-12  0.00E+00  0.00E+00  6.17E-07  1.26E-04  8.26E-03  0.00000
   1432.   6.983  8.21E-07  1.68E-04  6.89E-18  1.41E-15  0.00E+00  0.00E+00  8.21E-07  1.68E-04  8.26E-03  0.00000
   1434.   6.974  7.48E-07  1.54E-04  1.56E-19  3.22E-17  0.00E+00  0.00E+00  7.48E-07  1.54E-04  8.26E-03  0.00000
   1436.   6.964  4.69E-07  9.68E-05  7.07E-39  1.46E-36  0.00E+00  0.00E+00  4.69E-07  9.68E-05  8.26E-03  0.00000
   1438.   6.954  6.20E-07  1.28E-04  7.34E-23  1.52E-20  0.00E+00  0.00E+00  6.20E-07  1.28E-04  8.26E-03  0.00000
   1440.   6.944  9.44E-07  1.96E-04  5.09E-15  1.05E-12  0.00E+00  0.00E+00  9.44E-07  1.96E-04  8.26E-03  0.00000
   1442.   6.935  1.04E-06  2.15E-04  2.86E-13  5.94E-11  0.00E+00  0.00E+00  1.04E-06  2.15E-04  8.27E-03  0.00000
   1444.   6.925  1.02E-06  2.13E-04  4.42E-13  9.21E-11  0.00E+00  0.00E+00  1.02E-06  2.13E-04  8.27E-03  0.00000
   1446.   6.916  7.43E-07  1.55E-04  5.86E-16  1.23E-13  0.00E+00  0.00E+00  7.43E-07  1.55E-04  8.27E-03  0.00000
   1448.   6.906  5.63E-07  1.18E-04  1.47E-15  3.09E-13  0.00E+00  0.00E+00  5.63E-07  1.18E-04  8.27E-03  0.00000
   1450.   6.897  8.33E-07  1.75E-04  1.87E-18  3.93E-16  0.00E+00  0.00E+00  8.33E-07  1.75E-04  8.27E-03  0.00000
   1452.   6.887  6.69E-07  1.41E-04  3.36E-20  7.08E-18  0.00E+00  0.00E+00  6.69E-07  1.41E-04  8.27E-03  0.00000
   1454.   6.878  6.16E-07  1.30E-04  5.04E-31  1.06E-28  0.00E+00  0.00E+00  6.16E-07  1.30E-04  8.27E-03  0.00000
   1456.   6.868  3.61E-07  7.66E-05  7.01E-45  1.49E-42  0.00E+00  0.00E+00  3.61E-07  7.66E-05  8.28E-03  0.00000
   1458.   6.859  3.30E-07  7.02E-05  7.01E-45  1.49E-42  0.00E+00  0.00E+00  3.30E-07  7.02E-05  8.28E-03  0.00000
   1460.   6.849  5.37E-07  1.14E-04  2.71E-29  5.77E-27  0.00E+00  0.00E+00  5.37E-07  1.14E-04  8.28E-03  0.00000
   1462.   6.840  6.98E-07  1.49E-04  8.95E-26  1.91E-23  0.00E+00  0.00E+00  6.98E-07  1.49E-04  8.28E-03  0.00000
   1464.   6.831  4.47E-07  9.57E-05  1.15E-18  2.46E-16  0.00E+00  0.00E+00  4.47E-07  9.57E-05  8.28E-03  0.00000
   1466.   6.821  5.25E-07  1.13E-04  1.15E-18  2.46E-16  0.00E+00  0.00E+00  5.25E-07  1.13E-04  8.28E-03  0.00000
   1468.   6.812  6.93E-07  1.49E-04  5.54E-23  1.19E-20  0.00E+00  0.00E+00  6.93E-07  1.49E-04  8.28E-03  0.00000
   1470.   6.803  6.16E-07  1.33E-04  1.57E-23  3.39E-21  0.00E+00  0.00E+00  6.16E-07  1.33E-04  8.28E-03  0.00000
   1472.   6.793  3.58E-07  7.76E-05  6.78E-37  1.47E-34  0.00E+00  0.00E+00  3.58E-07  7.76E-05  8.28E-03  0.00000
   1474.   6.784  3.80E-07  8.27E-05  5.95E-40  1.29E-37  0.00E+00  0.00E+00  3.80E-07  8.27E-05  8.28E-03  0.00000
   1476.   6.775  4.26E-07  9.28E-05  1.32E-30  2.88E-28  0.00E+00  0.00E+00  4.26E-07  9.28E-05  8.29E-03  0.00000
   1478.   6.766  6.68E-07  1.46E-04  2.99E-20  6.52E-18  0.00E+00  0.00E+00  6.68E-07  1.46E-04  8.29E-03  0.00000
   1480.   6.757  6.73E-07  1.47E-04  4.49E-20  9.84E-18  0.00E+00  0.00E+00  6.73E-07  1.47E-04  8.29E-03  0.00000
   1482.   6.748  6.06E-07  1.33E-04  1.08E-19  2.37E-17  0.00E+00  0.00E+00  6.06E-07  1.33E-04  8.29E-03  0.00000
   1484.   6.739  7.07E-07  1.56E-04  1.25E-19  2.76E-17  0.00E+00  0.00E+00  7.07E-07  1.56E-04  8.29E-03  0.00000
   1486.   6.729  4.95E-07  1.09E-04  2.26E-24  4.98E-22  0.00E+00  0.00E+00  4.95E-07  1.09E-04  8.29E-03  0.00000
   1488.   6.720  3.78E-07  8.36E-05  2.13E-27  4.71E-25  0.00E+00  0.00E+00  3.78E-07  8.36E-05  8.29E-03  0.00000
   1490.   6.711  3.32E-07  7.36E-05  3.90E-37  8.67E-35  0.00E+00  0.00E+00  3.32E-07  7.36E-05  8.29E-03  0.00000
   1492.   6.702  4.99E-07  1.11E-04  9.67E-31  2.15E-28  0.00E+00  0.00E+00  4.99E-07  1.11E-04  8.29E-03  0.00000
   1494.   6.693  5.51E-07  1.23E-04  9.67E-31  2.16E-28  0.00E+00  0.00E+00  5.51E-07  1.23E-04  8.29E-03  0.00000
   1496.   6.684  3.35E-07  7.49E-05  4.15E-26  9.29E-24  0.00E+00  0.00E+00  3.35E-07  7.49E-05  8.30E-03  0.00000
   1498.   6.676  3.28E-07  7.36E-05  4.00E-34  8.98E-32  0.00E+00  0.00E+00  3.28E-07  7.36E-05  8.30E-03  0.00000
1                                             RADIANCE(WATTS/CM2-STER-XXX)
0  FREQ   WAVLEN    PATH THERMAL      SURFACE EMISSION    SURFACE REFLECTED     TOTAL RADIANCE   INTEGRAL    TOTAL
  (CM-1) (MICRN)    (CM-1)   (MICRN)    (CM-1)   (MICRN)    (CM-1)   (MICRN)    (CM-1)   (MICRN)    (CM-1)   TRANS

   1500.   6.667  4.05E-07  9.11E-05  4.00E-34  9.00E-32  0.00E+00  0.00E+00  4.05E-07  9.11E-05  8.30E-03  0.00000
0INTEGRATED ABSORPTION FROM  100 TO 1500 CM-1 =   1037.53 CM-1
 AVERAGE TRANSMITTANCE =0.2589

0INTEGRATED RADIANCE =  8.297E-03 WATTS CM-2 STER-1
 MINIMUM RADIANCE    =  3.279E-07 WATTS CM-2 STER-1 (CM-1)-1 AT     1498.0 CM-1
 MAXIMUM RADIANCE    =  1.206E-05 WATTS CM-2 STER-1 (CM-1)-1 AT      560.0 CM-1
 BOUNDARY TEMPERATURE =     288.20 K
 BOUNDARY EMISSIVITY =       0.980
0 CARD 5 *****    0

