*****  MODTRAN3 Version 1.3  12/1/95  *****
0 CARD 1  *****T   6    3    1    0    0    0    0    0    0    0    0    0   -1   0.000  -1.00
 co2mx co2rat ch4rat h2orat t_o3rat s_o3rat   10000.000       30.303030       0.0000000       0.0000000       0.0000000       0.0000000    
0 CARD 2  *****    2    0    0    0    0    0     0.000     0.000     0.000     0.000     0.000
0 CARD 3  *****    70.000     0.000   180.000     0.000     0.000     0.000    0
0 CARD 4  *****         2      2200         2         2
0 PROGRAM WILL COMPUTE RADIANCE                
0 ATMOSPHERIC MODEL
          TEMPERATURE =    6     1976 U S STANDARD   
          WATER VAPOR =    6     1976 U S STANDARD   
          OZONE       =    6     1976 U S STANDARD   
                      M4 =     6 M5 =     6 M6 =     6 MDEF =     1
0 AEROSOL MODEL
          REGIME                  AEROSOL TYPE             PROFILE                  SEASON

          BOUNDARY LAYER (0-2 KM) RURAL                      5.0 KM VIS AT SEA LEVEL
          TROPOSPHERE  (2-10KM)   TROPOSPHERIC             TROPOSPHERIC             SPRING-SUMMER       
          STRATOSPHERE (10-30KM)  BACKGROUND STRATO        BACKGROUND STRATO        SPRING-SUMMER       
          UPPER ATMOS (30-100KM)  METEORIC DUST            NORMAL              
0 SLANT PATH TO SPACE
          H1    =     70.000 KM
          HMIN  =      0.000 KM
          ANGLE =    180.000 DEG
0 FREQUENCY RANGE
             IV1 =         2 CM-1  (   5000.00 MICROMETERS)
             IV2 =      2200 CM-1  (      4.55 MICROMETERS)
             IDV =         2 CM-1
           IFWHM =         2 CM-1
1
  ATMOSPHERIC PROFILES

   I     Z       P       T        N2       CNTMSLF MOL SCAT     N-1     O3 (UV)  O2 (UV)
        (KM)    (MB)    (K)            (MOL/CM2 KM)   (-)       (-)  (ATM CM/KM) (ATM CM/KM)

   1     0.00 1013.000  288.2  8.243E-01 0.000E+00 9.475E-01 2.725E-04 0.000E+00 3.535E+04
   2     1.00  898.800  281.7  6.792E-01 0.000E+00 8.601E-01 2.474E-04 0.000E+00 3.079E+04
   3     2.00  795.000  275.2  5.568E-01 0.000E+00 7.788E-01 2.240E-04 0.000E+00 2.678E+04
   4     3.00  701.200  268.7  4.543E-01 0.000E+00 7.035E-01 2.023E-04 0.000E+00 2.327E+04
   5     4.00  616.600  262.2  3.690E-01 0.000E+00 6.340E-01 1.823E-04 0.000E+00 2.021E+04
   6     5.00  540.500  255.7  2.981E-01 0.000E+00 5.698E-01 1.639E-04 0.000E+00 1.753E+04
   7     6.00  472.200  249.2  2.396E-01 0.000E+00 5.108E-01 1.469E-04 0.000E+00 1.519E+04
   8     7.00  411.100  242.7  1.914E-01 0.000E+00 4.566E-01 1.313E-04 0.000E+00 1.315E+04
   9     8.00  356.500  236.2  1.520E-01 0.000E+00 4.069E-01 1.170E-04 0.000E+00 1.137E+04
  10     9.00  308.000  229.7  1.200E-01 0.000E+00 3.615E-01 1.040E-04 0.000E+00 9.815E+03
  11    10.00  265.000  223.3  9.396E-02 0.000E+00 3.199E-01 9.201E-05 0.000E+00 8.456E+03
  12    11.00  227.000  216.8  7.314E-02 0.000E+00 2.823E-01 8.118E-05 0.000E+00 7.276E+03
  13    12.00  194.000  216.7  5.347E-02 0.000E+00 2.413E-01 6.941E-05 0.000E+00 6.050E+03
  14    13.00  165.800  216.7  3.906E-02 0.000E+00 2.063E-01 5.932E-05 0.000E+00 5.045E+03
  15    14.00  141.700  216.7  2.853E-02 0.000E+00 1.763E-01 5.070E-05 0.000E+00 4.220E+03
  16    15.00  121.100  216.7  2.084E-02 0.000E+00 1.507E-01 4.333E-05 0.000E+00 3.540E+03
  17    16.00  103.500  216.7  1.522E-02 0.000E+00 1.288E-01 3.703E-05 0.000E+00 2.977E+03
  18    17.00   88.500  216.7  1.113E-02 0.000E+00 1.101E-01 3.166E-05 0.000E+00 2.510E+03
  19    18.00   75.650  216.7  8.131E-03 0.000E+00 9.411E-02 2.707E-05 0.000E+00 2.119E+03
  20    19.00   64.670  216.7  5.942E-03 0.000E+00 8.045E-02 2.314E-05 0.000E+00 1.792E+03
  21    20.00   55.290  216.7  4.343E-03 0.000E+00 6.878E-02 1.978E-05 0.000E+00 1.519E+03
  22    21.00   47.290  217.6  3.151E-03 0.000E+00 5.859E-02 1.685E-05 0.000E+00 1.283E+03
  23    22.00   40.470  218.6  2.287E-03 0.000E+00 4.991E-02 1.435E-05 0.000E+00 1.086E+03
  24    23.00   34.670  219.6  1.663E-03 0.000E+00 4.256E-02 1.224E-05 0.000E+00 9.203E+02
  25    24.00   29.720  220.6  1.211E-03 0.000E+00 3.632E-02 1.045E-05 0.000E+00 7.814E+02
  26    25.00   25.490  221.6  8.828E-04 0.000E+00 3.101E-02 8.918E-06 0.000E+00 6.643E+02
  27    30.00   11.970  226.5  1.863E-04 0.000E+00 1.425E-02 4.097E-06 0.000E+00 3.011E+02
  28    35.00    5.746  236.5  3.938E-05 0.000E+00 6.550E-03 1.884E-06 0.000E+00 1.375E+02
  29    40.00    2.871  250.4  8.771E-06 0.000E+00 3.091E-03 8.889E-07 0.000E+00 6.472E+01
  30    45.00    1.491  264.2  2.125E-06 0.000E+00 1.521E-03 4.375E-07 0.000E+00 3.182E+01
  31    50.00    0.798  270.7  5.795E-07 0.000E+00 7.945E-04 2.285E-07 0.000E+00 1.660E+01
  32    70.00    0.052  219.6  3.770E-09 0.000E+00 6.408E-05 1.843E-08 0.000E+00 1.338E+00
  33   100.00    0.000  195.1  1.795E-13 0.000E+00 4.422E-07 1.272E-10 0.000E+00 7.070E-03
1
  ATMOSPHERIC PROFILES

   I     Z       P       T      CNTMFRN     HNO3    AEROSOL 1 AEROSOL 2 AEROSOL 3 AEROSOL 4 AER1*RH   CIRRUS         RH
        (KM)    (MB)    (K)   MOL/CM2 KM ATM CM/KM   (-)       (-)       (-)       (-)       (-)       (-)      (PERCNT)

   1     0.00 1013.000  288.2  0.000E+00 0.000E+00 7.700E-01 0.000E+00 0.000E+00 0.000E+00 3.546E+00 0.000E+00 0.000E+00
   2     1.00  898.800  281.7  0.000E+00 0.000E+00 7.700E-01 0.000E+00 0.000E+00 0.000E+00 3.546E+00 0.000E+00 0.000E+00
   3     2.00  795.000  275.2  0.000E+00 0.000E+00 6.210E-02 0.000E+00 0.000E+00 0.000E+00 2.860E-01 0.000E+00 0.000E+00
   4     3.00  701.200  268.7  0.000E+00 0.000E+00 0.000E+00 3.460E-02 0.000E+00 0.000E+00 0.000E+00 0.000E+00 0.000E+00
   5     4.00  616.600  262.2  0.000E+00 0.000E+00 0.000E+00 1.850E-02 0.000E+00 0.000E+00 0.000E+00 0.000E+00 0.000E+00
   6     5.00  540.500  255.7  0.000E+00 0.000E+00 0.000E+00 9.310E-03 0.000E+00 0.000E+00 0.000E+00 0.000E+00 0.000E+00
   7     6.00  472.200  249.2  0.000E+00 0.000E+00 0.000E+00 7.710E-03 0.000E+00 0.000E+00 0.000E+00 0.000E+00 0.000E+00
   8     7.00  411.100  242.7  0.000E+00 0.000E+00 0.000E+00 6.230E-03 0.000E+00 0.000E+00 0.000E+00 0.000E+00 0.000E+00
   9     8.00  356.500  236.2  0.000E+00 0.000E+00 0.000E+00 3.370E-03 0.000E+00 0.000E+00 0.000E+00 0.000E+00 0.000E+00
  10     9.00  308.000  229.7  0.000E+00 0.000E+00 0.000E+00 1.820E-03 0.000E+00 0.000E+00 0.000E+00 0.000E+00 0.000E+00
  11    10.00  265.000  223.3  0.000E+00 0.000E+00 0.000E+00 1.140E-03 0.000E+00 0.000E+00 0.000E+00 0.000E+00 0.000E+00
  12    11.00  227.000  216.8  0.000E+00 0.000E+00 0.000E+00 0.000E+00 7.990E-04 0.000E+00 0.000E+00 0.000E+00 0.000E+00
  13    12.00  194.000  216.7  0.000E+00 0.000E+00 0.000E+00 0.000E+00 6.410E-04 0.000E+00 0.000E+00 0.000E+00 0.000E+00
  14    13.00  165.800  216.7  0.000E+00 0.000E+00 0.000E+00 0.000E+00 5.170E-04 0.000E+00 0.000E+00 0.000E+00 0.000E+00
  15    14.00  141.700  216.7  0.000E+00 0.000E+00 0.000E+00 0.000E+00 4.420E-04 0.000E+00 0.000E+00 0.000E+00 0.000E+00
  16    15.00  121.100  216.7  0.000E+00 0.000E+00 0.000E+00 0.000E+00 3.950E-04 0.000E+00 0.000E+00 0.000E+00 0.000E+00
  17    16.00  103.500  216.7  0.000E+00 0.000E+00 0.000E+00 0.000E+00 3.820E-04 0.000E+00 0.000E+00 0.000E+00 0.000E+00
  18    17.00   88.500  216.7  0.000E+00 0.000E+00 0.000E+00 0.000E+00 4.250E-04 0.000E+00 0.000E+00 0.000E+00 0.000E+00
  19    18.00   75.650  216.7  0.000E+00 0.000E+00 0.000E+00 0.000E+00 5.200E-04 0.000E+00 0.000E+00 0.000E+00 0.000E+00
  20    19.00   64.670  216.7  0.000E+00 0.000E+00 0.000E+00 0.000E+00 5.810E-04 0.000E+00 0.000E+00 0.000E+00 0.000E+00
  21    20.00   55.290  216.7  0.000E+00 0.000E+00 0.000E+00 0.000E+00 5.890E-04 0.000E+00 0.000E+00 0.000E+00 0.000E+00
  22    21.00   47.290  217.6  0.000E+00 0.000E+00 0.000E+00 0.000E+00 5.020E-04 0.000E+00 0.000E+00 0.000E+00 0.000E+00
  23    22.00   40.470  218.6  0.000E+00 0.000E+00 0.000E+00 0.000E+00 4.200E-04 0.000E+00 0.000E+00 0.000E+00 0.000E+00
  24    23.00   34.670  219.6  0.000E+00 0.000E+00 0.000E+00 0.000E+00 3.000E-04 0.000E+00 0.000E+00 0.000E+00 0.000E+00
  25    24.00   29.720  220.6  0.000E+00 0.000E+00 0.000E+00 0.000E+00 1.980E-04 0.000E+00 0.000E+00 0.000E+00 0.000E+00
  26    25.00   25.490  221.6  0.000E+00 0.000E+00 0.000E+00 0.000E+00 1.310E-04 0.000E+00 0.000E+00 0.000E+00 0.000E+00
  27    30.00   11.970  226.5  0.000E+00 0.000E+00 0.000E+00 0.000E+00 3.320E-05 0.000E+00 0.000E+00 0.000E+00 0.000E+00
  28    35.00    5.746  236.5  0.000E+00 0.000E+00 0.000E+00 0.000E+00 0.000E+00 1.640E-05 0.000E+00 0.000E+00 0.000E+00
  29    40.00    2.871  250.4  0.000E+00 0.000E+00 0.000E+00 0.000E+00 0.000E+00 7.990E-06 0.000E+00 0.000E+00 0.000E+00
  30    45.00    1.491  264.2  0.000E+00 0.000E+00 0.000E+00 0.000E+00 0.000E+00 4.010E-06 0.000E+00 0.000E+00 0.000E+00
  31    50.00    0.798  270.7  0.000E+00 0.000E+00 0.000E+00 0.000E+00 0.000E+00 2.100E-06 0.000E+00 0.000E+00 0.000E+00
  32    70.00    0.052  219.6  0.000E+00 0.000E+00 0.000E+00 0.000E+00 0.000E+00 1.600E-07 0.000E+00 0.000E+00 0.000E+00
  33   100.00    0.000  195.1  0.000E+00 0.000E+00 0.000E+00 0.000E+00 0.000E+00 9.310E-10 0.000E+00 0.000E+00 0.000E+00
1
  ATMOSPHERIC PROFILES

   I      Z       P       T      H2O      O3       CO2      CO       CH4      N2O      O2       NH3      NO       NO2      SO2
         (KM)    (MB)    (K)  (                                    MBAR                                                       )
   1     0.00 1013.000  288.2  0.00E+00 0.00E+00 1.00E+04 0.00E+00 0.00E+00 0.00E+00 2.09E+05 0.00E+00 0.00E+00 0.00E+00 0.00E+00
   2     1.00  898.800  281.7  0.00E+00 0.00E+00 1.00E+04 0.00E+00 0.00E+00 0.00E+00 2.09E+05 0.00E+00 0.00E+00 0.00E+00 0.00E+00
   3     2.00  795.000  275.2  0.00E+00 0.00E+00 1.00E+04 0.00E+00 0.00E+00 0.00E+00 2.09E+05 0.00E+00 0.00E+00 0.00E+00 0.00E+00
   4     3.00  701.200  268.7  0.00E+00 0.00E+00 1.00E+04 0.00E+00 0.00E+00 0.00E+00 2.09E+05 0.00E+00 0.00E+00 0.00E+00 0.00E+00
   5     4.00  616.600  262.2  0.00E+00 0.00E+00 1.00E+04 0.00E+00 0.00E+00 0.00E+00 2.09E+05 0.00E+00 0.00E+00 0.00E+00 0.00E+00
   6     5.00  540.500  255.7  0.00E+00 0.00E+00 1.00E+04 0.00E+00 0.00E+00 0.00E+00 2.09E+05 0.00E+00 0.00E+00 0.00E+00 0.00E+00
   7     6.00  472.200  249.2  0.00E+00 0.00E+00 1.00E+04 0.00E+00 0.00E+00 0.00E+00 2.09E+05 0.00E+00 0.00E+00 0.00E+00 0.00E+00
   8     7.00  411.100  242.7  0.00E+00 0.00E+00 1.00E+04 0.00E+00 0.00E+00 0.00E+00 2.09E+05 0.00E+00 0.00E+00 0.00E+00 0.00E+00
   9     8.00  356.500  236.2  0.00E+00 0.00E+00 1.00E+04 0.00E+00 0.00E+00 0.00E+00 2.09E+05 0.00E+00 0.00E+00 0.00E+00 0.00E+00
  10     9.00  308.000  229.7  0.00E+00 0.00E+00 1.00E+04 0.00E+00 0.00E+00 0.00E+00 2.09E+05 0.00E+00 0.00E+00 0.00E+00 0.00E+00
  11    10.00  265.000  223.3  0.00E+00 0.00E+00 1.00E+04 0.00E+00 0.00E+00 0.00E+00 2.09E+05 0.00E+00 0.00E+00 0.00E+00 0.00E+00
  12    11.00  227.000  216.8  0.00E+00 0.00E+00 1.00E+04 0.00E+00 0.00E+00 0.00E+00 2.09E+05 0.00E+00 0.00E+00 0.00E+00 0.00E+00
  13    12.00  194.000  216.7  0.00E+00 0.00E+00 1.00E+04 0.00E+00 0.00E+00 0.00E+00 2.09E+05 0.00E+00 0.00E+00 0.00E+00 0.00E+00
  14    13.00  165.800  216.7  0.00E+00 0.00E+00 1.00E+04 0.00E+00 0.00E+00 0.00E+00 2.09E+05 0.00E+00 0.00E+00 0.00E+00 0.00E+00
  15    14.00  141.700  216.7  0.00E+00 0.00E+00 1.00E+04 0.00E+00 0.00E+00 0.00E+00 2.09E+05 0.00E+00 0.00E+00 0.00E+00 0.00E+00
  16    15.00  121.100  216.7  0.00E+00 0.00E+00 1.00E+04 0.00E+00 0.00E+00 0.00E+00 2.09E+05 0.00E+00 0.00E+00 0.00E+00 0.00E+00
  17    16.00  103.500  216.7  0.00E+00 0.00E+00 1.00E+04 0.00E+00 0.00E+00 0.00E+00 2.09E+05 0.00E+00 0.00E+00 0.00E+00 0.00E+00
  18    17.00   88.500  216.7  0.00E+00 0.00E+00 1.00E+04 0.00E+00 0.00E+00 0.00E+00 2.09E+05 0.00E+00 0.00E+00 0.00E+00 0.00E+00
  19    18.00   75.650  216.7  0.00E+00 0.00E+00 1.00E+04 0.00E+00 0.00E+00 0.00E+00 2.09E+05 0.00E+00 0.00E+00 0.00E+00 0.00E+00
  20    19.00   64.670  216.7  0.00E+00 0.00E+00 1.00E+04 0.00E+00 0.00E+00 0.00E+00 2.09E+05 0.00E+00 0.00E+00 0.00E+00 0.00E+00
  21    20.00   55.290  216.7  0.00E+00 0.00E+00 1.00E+04 0.00E+00 0.00E+00 0.00E+00 2.09E+05 0.00E+00 0.00E+00 0.00E+00 0.00E+00
  22    21.00   47.290  217.6  0.00E+00 0.00E+00 1.00E+04 0.00E+00 0.00E+00 0.00E+00 2.09E+05 0.00E+00 0.00E+00 0.00E+00 0.00E+00
  23    22.00   40.470  218.6  0.00E+00 0.00E+00 1.00E+04 0.00E+00 0.00E+00 0.00E+00 2.09E+05 0.00E+00 0.00E+00 0.00E+00 0.00E+00
  24    23.00   34.670  219.6  0.00E+00 0.00E+00 1.00E+04 0.00E+00 0.00E+00 0.00E+00 2.09E+05 0.00E+00 0.00E+00 0.00E+00 0.00E+00
  25    24.00   29.720  220.6  0.00E+00 0.00E+00 1.00E+04 0.00E+00 0.00E+00 0.00E+00 2.09E+05 0.00E+00 0.00E+00 0.00E+00 0.00E+00
  26    25.00   25.490  221.6  0.00E+00 0.00E+00 1.00E+04 0.00E+00 0.00E+00 0.00E+00 2.09E+05 0.00E+00 0.00E+00 0.00E+00 0.00E+00
  27    30.00   11.970  226.5  0.00E+00 0.00E+00 1.00E+04 0.00E+00 0.00E+00 0.00E+00 2.09E+05 0.00E+00 0.00E+00 0.00E+00 0.00E+00
  28    35.00    5.746  236.5  0.00E+00 0.00E+00 1.00E+04 0.00E+00 0.00E+00 0.00E+00 2.09E+05 0.00E+00 0.00E+00 0.00E+00 0.00E+00
  29    40.00    2.871  250.4  0.00E+00 0.00E+00 1.00E+04 0.00E+00 0.00E+00 0.00E+00 2.09E+05 0.00E+00 0.00E+00 0.00E+00 0.00E+00
  30    45.00    1.491  264.2  0.00E+00 0.00E+00 1.00E+04 0.00E+00 0.00E+00 0.00E+00 2.09E+05 0.00E+00 0.00E+00 0.00E+00 0.00E+00
  31    50.00    0.798  270.7  0.00E+00 0.00E+00 1.00E+04 0.00E+00 0.00E+00 0.00E+00 2.09E+05 0.00E+00 0.00E+00 0.00E+00 0.00E+00
  32    70.00    0.052  219.6  0.00E+00 0.00E+00 1.00E+04 0.00E+00 0.00E+00 0.00E+00 2.09E+05 0.00E+00 0.00E+00 0.00E+00 0.00E+00
  33   100.00    0.000  195.1  0.00E+00 0.00E+00 5.91E+03 0.00E+00 0.00E+00 0.00E+00 1.60E+05 0.00E+00 0.00E+00 0.00E+00 0.00E+00
1
  ATMOSPHERIC PROFILES

   I      Z       P       T     CFC-11   CFC-12   CFC-13   CFC-14   CFC-22   CFC-113  CFC-114  CFC-115  CLONO2    HNO4    CHCL2F 
                                 CCL4     N2O5  
         (KM)    (MB)    (K)  (                                 ATM CM/KM                                                     )
   1     0.00 1013.000  288.2  0.00E+00 0.00E+00 0.00E+00 0.00E+00 0.00E+00 0.00E+00 0.00E+00 0.00E+00 0.00E+00 0.00E+00 0.00E+00
                               0.00E+00 0.00E+00
   2     1.00  898.800  281.7  0.00E+00 0.00E+00 0.00E+00 0.00E+00 0.00E+00 0.00E+00 0.00E+00 0.00E+00 0.00E+00 0.00E+00 0.00E+00
                               0.00E+00 0.00E+00
   3     2.00  795.000  275.2  0.00E+00 0.00E+00 0.00E+00 0.00E+00 0.00E+00 0.00E+00 0.00E+00 0.00E+00 0.00E+00 0.00E+00 0.00E+00
                               0.00E+00 0.00E+00
   4     3.00  701.200  268.7  0.00E+00 0.00E+00 0.00E+00 0.00E+00 0.00E+00 0.00E+00 0.00E+00 0.00E+00 0.00E+00 0.00E+00 0.00E+00
                               0.00E+00 0.00E+00
   5     4.00  616.600  262.2  0.00E+00 0.00E+00 0.00E+00 0.00E+00 0.00E+00 0.00E+00 0.00E+00 0.00E+00 0.00E+00 0.00E+00 0.00E+00
                               0.00E+00 0.00E+00
   6     5.00  540.500  255.7  0.00E+00 0.00E+00 0.00E+00 0.00E+00 0.00E+00 0.00E+00 0.00E+00 0.00E+00 0.00E+00 0.00E+00 0.00E+00
                               0.00E+00 0.00E+00
   7     6.00  472.200  249.2  0.00E+00 0.00E+00 0.00E+00 0.00E+00 0.00E+00 0.00E+00 0.00E+00 0.00E+00 0.00E+00 0.00E+00 0.00E+00
                               0.00E+00 0.00E+00
   8     7.00  411.100  242.7  0.00E+00 0.00E+00 0.00E+00 0.00E+00 0.00E+00 0.00E+00 0.00E+00 0.00E+00 0.00E+00 0.00E+00 0.00E+00
                               0.00E+00 0.00E+00
   9     8.00  356.500  236.2  0.00E+00 0.00E+00 0.00E+00 0.00E+00 0.00E+00 0.00E+00 0.00E+00 0.00E+00 0.00E+00 0.00E+00 0.00E+00
                               0.00E+00 0.00E+00
  10     9.00  308.000  229.7  0.00E+00 0.00E+00 0.00E+00 0.00E+00 0.00E+00 0.00E+00 0.00E+00 0.00E+00 0.00E+00 0.00E+00 0.00E+00
                               0.00E+00 0.00E+00
  11    10.00  265.000  223.3  0.00E+00 0.00E+00 0.00E+00 0.00E+00 0.00E+00 0.00E+00 0.00E+00 0.00E+00 0.00E+00 0.00E+00 0.00E+00
                               0.00E+00 0.00E+00
  12    11.00  227.000  216.8  0.00E+00 0.00E+00 0.00E+00 0.00E+00 0.00E+00 0.00E+00 0.00E+00 0.00E+00 0.00E+00 0.00E+00 0.00E+00
                               0.00E+00 0.00E+00
  13    12.00  194.000  216.7  0.00E+00 0.00E+00 0.00E+00 0.00E+00 0.00E+00 0.00E+00 0.00E+00 0.00E+00 0.00E+00 0.00E+00 0.00E+00
                               0.00E+00 0.00E+00
  14    13.00  165.800  216.7  0.00E+00 0.00E+00 0.00E+00 0.00E+00 0.00E+00 0.00E+00 0.00E+00 0.00E+00 0.00E+00 0.00E+00 0.00E+00
                               0.00E+00 0.00E+00
  15    14.00  141.700  216.7  0.00E+00 0.00E+00 0.00E+00 0.00E+00 0.00E+00 0.00E+00 0.00E+00 0.00E+00 0.00E+00 0.00E+00 0.00E+00
                               0.00E+00 0.00E+00
  16    15.00  121.100  216.7  0.00E+00 0.00E+00 0.00E+00 0.00E+00 0.00E+00 0.00E+00 0.00E+00 0.00E+00 0.00E+00 0.00E+00 0.00E+00
                               0.00E+00 0.00E+00
  17    16.00  103.500  216.7  0.00E+00 0.00E+00 0.00E+00 0.00E+00 0.00E+00 0.00E+00 0.00E+00 0.00E+00 0.00E+00 0.00E+00 0.00E+00
                               0.00E+00 0.00E+00
  18    17.00   88.500  216.7  0.00E+00 0.00E+00 0.00E+00 0.00E+00 0.00E+00 0.00E+00 0.00E+00 0.00E+00 0.00E+00 0.00E+00 0.00E+00
                               0.00E+00 0.00E+00
  19    18.00   75.650  216.7  0.00E+00 0.00E+00 0.00E+00 0.00E+00 0.00E+00 0.00E+00 0.00E+00 0.00E+00 0.00E+00 0.00E+00 0.00E+00
                               0.00E+00 0.00E+00
  20    19.00   64.670  216.7  0.00E+00 0.00E+00 0.00E+00 0.00E+00 0.00E+00 0.00E+00 0.00E+00 0.00E+00 0.00E+00 0.00E+00 0.00E+00
                               0.00E+00 0.00E+00
  21    20.00   55.290  216.7  0.00E+00 0.00E+00 0.00E+00 0.00E+00 0.00E+00 0.00E+00 0.00E+00 0.00E+00 0.00E+00 0.00E+00 0.00E+00
                               0.00E+00 0.00E+00
  22    21.00   47.290  217.6  0.00E+00 0.00E+00 0.00E+00 0.00E+00 0.00E+00 0.00E+00 0.00E+00 0.00E+00 0.00E+00 0.00E+00 0.00E+00
                               0.00E+00 0.00E+00
  23    22.00   40.470  218.6  0.00E+00 0.00E+00 0.00E+00 0.00E+00 0.00E+00 0.00E+00 0.00E+00 0.00E+00 0.00E+00 0.00E+00 0.00E+00
                               0.00E+00 0.00E+00
  24    23.00   34.670  219.6  0.00E+00 0.00E+00 0.00E+00 0.00E+00 0.00E+00 0.00E+00 0.00E+00 0.00E+00 0.00E+00 0.00E+00 0.00E+00
                               0.00E+00 0.00E+00
  25    24.00   29.720  220.6  0.00E+00 0.00E+00 0.00E+00 0.00E+00 0.00E+00 0.00E+00 0.00E+00 0.00E+00 0.00E+00 0.00E+00 0.00E+00
                               0.00E+00 0.00E+00
  26    25.00   25.490  221.6  0.00E+00 0.00E+00 0.00E+00 0.00E+00 0.00E+00 0.00E+00 0.00E+00 0.00E+00 0.00E+00 0.00E+00 0.00E+00
                               0.00E+00 0.00E+00
  27    30.00   11.970  226.5  0.00E+00 0.00E+00 0.00E+00 0.00E+00 0.00E+00 0.00E+00 0.00E+00 0.00E+00 0.00E+00 0.00E+00 0.00E+00
                               0.00E+00 0.00E+00
  28    35.00    5.746  236.5  0.00E+00 0.00E+00 0.00E+00 0.00E+00 0.00E+00 0.00E+00 0.00E+00 0.00E+00 0.00E+00 0.00E+00 0.00E+00
                               0.00E+00 0.00E+00
  29    40.00    2.871  250.4  0.00E+00 0.00E+00 0.00E+00 0.00E+00 0.00E+00 0.00E+00 0.00E+00 0.00E+00 0.00E+00 0.00E+00 0.00E+00
                               0.00E+00 0.00E+00
  30    45.00    1.491  264.2  0.00E+00 0.00E+00 0.00E+00 0.00E+00 0.00E+00 0.00E+00 0.00E+00 0.00E+00 0.00E+00 0.00E+00 0.00E+00
                               0.00E+00 0.00E+00
  31    50.00    0.798  270.7  0.00E+00 0.00E+00 0.00E+00 0.00E+00 0.00E+00 0.00E+00 0.00E+00 0.00E+00 0.00E+00 0.00E+00 0.00E+00
                               0.00E+00 0.00E+00
  32    70.00    0.052  219.6  0.00E+00 0.00E+00 0.00E+00 0.00E+00 0.00E+00 0.00E+00 0.00E+00 0.00E+00 0.00E+00 0.00E+00 0.00E+00
                               0.00E+00 0.00E+00
  33   100.00    0.000  195.1  0.00E+00 0.00E+00 0.00E+00 0.00E+00 0.00E+00 0.00E+00 0.00E+00 0.00E+00 0.00E+00 0.00E+00 0.00E+00
                               0.00E+00 0.00E+00


 CASE 3A: GIVEN H1,H2=SPACE,ANGLE



 TANGENT PATH WITH H1 =     70.000 AND ANGLE =    180.000 INTERSECTS THE EARTH

          H2 HAS BEEN RESET TO 0.0 AND LEN TO 0



 SLANT PATH PARAMETERS IN STANDARD FORM

          H1      =     70.000 KM
          H2      =      0.000 KM
          ANGLE   =    180.000 DEG
          PHI     =      0.000 DEG
          HMIN    =      0.000 KM
          LEN     =          0
1CALCULATION OF THE REFRACTED PATH THROUGH THE ATMOSPHERE


  I       ALTITUDE        THETA  DRANGE    RANGE    DBETA     BETA     PHI     DBEND  BENDING    PBAR    TBAR   RHOBAR
      FROM       TO
      (KM)      (KM)      (DEG)    (KM)     (KM)    (DEG)    (DEG)    (DEG)    (DEG)    (DEG)    (MB)    (K)  (GM CM-3)

          H2 TO H1

  1    0.000    1.000    0.000    1.000    1.000    0.000    0.000  180.000    0.000    0.000  955.683  284.99 1.17E-03
  2    1.000    2.000    0.000    1.000    2.000    0.000    0.000  180.000    0.000    0.000  846.698  278.49 1.06E-03
  3    2.000    3.000    0.000    1.000    3.000    0.000    0.000  180.000    0.000    0.000  747.913  271.99 9.57E-04
  4    3.000    4.000    0.000    1.000    4.000    0.000    0.000  180.000    0.000    0.000  658.727  265.49 8.63E-04
  5    4.000    5.000    0.000    1.000    5.000    0.000    0.000  180.000    0.000    0.000  578.391  258.99 7.77E-04
  6    5.000    6.000    0.000    1.000    6.000    0.000    0.000  180.000    0.000    0.000  506.204  252.50 6.98E-04
  7    6.000    7.000    0.000    1.000    7.000    0.000    0.000  180.000    0.000    0.000  441.515  246.00 6.24E-04
  8    7.000    8.000    0.000    1.000    8.000    0.000    0.000  180.000    0.000    0.000  383.677  239.50 5.57E-04
  9    8.000    9.000    0.000    1.000    9.000    0.000    0.000  180.000    0.000    0.000  332.137  233.00 4.96E-04
 10    9.000   10.000    0.000    1.000   10.000    0.000    0.000  180.000    0.000    0.000  286.399  226.55 4.40E-04
 11   10.000   11.000    0.000    1.000   11.000    0.000    0.000  180.000    0.000    0.000  245.907  220.10 3.89E-04
 12   11.000   12.000    0.000    1.000   12.000    0.000    0.000  180.000    0.000    0.000  210.499  216.75 3.38E-04
 13   12.000   13.000    0.000    1.000   13.000    0.000    0.000  180.000    0.000    0.000  179.900  216.70 2.89E-04
 14   13.000   14.000    0.000    1.000   14.000    0.000    0.000  180.000    0.000    0.000  153.750  216.70 2.47E-04
 15   14.000   15.000    0.000    1.000   15.000    0.000    0.000  180.000    0.000    0.000  131.400  216.70 2.11E-04
 16   15.000   16.000    0.000    1.000   16.000    0.000    0.000  180.000    0.000    0.000  112.300  216.70 1.80E-04
 17   16.000   17.000    0.000    1.000   17.000    0.000    0.000  180.000    0.000    0.000   96.000  216.70 1.54E-04
 18   17.000   18.000    0.000    1.000   18.000    0.000    0.000  180.000    0.000    0.000   82.075  216.70 1.32E-04
 19   18.000   19.000    0.000    1.000   19.000    0.000    0.000  180.000    0.000    0.000   70.160  216.70 1.13E-04
 20   19.000   20.000    0.000    1.000   20.000    0.000    0.000  180.000    0.000    0.000   59.980  216.70 9.62E-05
 21   20.000   21.000    0.000    1.000   21.000    0.000    0.000  180.000    0.000    0.000   51.293  217.14 8.21E-05
 22   21.000   22.000    0.000    1.000   22.000    0.000    0.000  180.000    0.000    0.000   43.883  218.09 7.00E-05
 23   22.000   23.000    0.000    1.000   23.000    0.000    0.000  180.000    0.000    0.000   37.572  219.09 5.96E-05
 24   23.000   24.000    0.000    1.000   24.000    0.000    0.000  180.000    0.000    0.000   32.197  220.09 5.09E-05
 25   24.000   25.000    0.000    1.000   25.000    0.000    0.000  180.000    0.000    0.000   27.607  221.09 4.34E-05
 26   25.000   30.000    0.000    5.000   30.000    0.000    0.000  180.000    0.000    0.000   18.754  223.73 2.79E-05
 27   30.000   35.000    0.000    5.000   35.000    0.000    0.000  180.000    0.000    0.000    8.880  230.82 1.28E-05
 28   35.000   40.000    0.000    5.000   40.000    0.000    0.000  180.000    0.000    0.000    4.322  242.52 5.95E-06
 29   40.000   45.000    0.000    5.000   45.000    0.000    0.000  180.000    0.000    0.000    2.187  256.43 2.86E-06
 30   45.000   50.000    0.000    5.000   50.000    0.000    0.000  180.000    0.000    0.000    1.146  267.09 1.45E-06
 31   50.000   70.000    0.000   20.000   70.000    0.000    0.000  180.000    0.000    0.000    0.414  254.07 3.75E-07




1CUMULATIVE ABSORBER AMOUNTS FOR THE PATH FROM H1 TO Z

  J     Z        TBAR     HNO3        O3 UV      CNTMSLF1   CNTMSLF2    CNTMFRN      O2
       (KM)       (K)   (ATM CM)    (ATM CM)    (MOL CM-2)  (MOL CM-2)  (MOL CM-2)(MOL CM-2)

  1   50.000   254.07   0.000E+00   0.000E+00   0.000E+00   0.000E+00   0.000E+00   1.212E+02
  2   45.000   267.09   0.000E+00   0.000E+00   0.000E+00   0.000E+00   0.000E+00   2.382E+02
  3   40.000   256.43   0.000E+00   0.000E+00   0.000E+00   0.000E+00   0.000E+00   4.699E+02
  4   35.000   242.52   0.000E+00   0.000E+00   0.000E+00   0.000E+00   0.000E+00   9.529E+02
  5   30.000   230.82   0.000E+00   0.000E+00   0.000E+00   0.000E+00   0.000E+00   1.997E+03
  6   25.000   223.73   0.000E+00   0.000E+00   0.000E+00   0.000E+00   0.000E+00   4.291E+03
  7   24.000   221.09   0.000E+00   0.000E+00   0.000E+00   0.000E+00   0.000E+00   5.013E+03
  8   23.000   220.09   0.000E+00   0.000E+00   0.000E+00   0.000E+00   0.000E+00   5.862E+03
  9   22.000   219.09   0.000E+00   0.000E+00   0.000E+00   0.000E+00   0.000E+00   6.862E+03
 10   21.000   218.09   0.000E+00   0.000E+00   0.000E+00   0.000E+00   0.000E+00   8.044E+03
 11   20.000   217.14   0.000E+00   0.000E+00   0.000E+00   0.000E+00   0.000E+00   9.442E+03
 12   19.000   216.70   0.000E+00   0.000E+00   0.000E+00   0.000E+00   0.000E+00   1.109E+04
 13   18.000   216.70   0.000E+00   0.000E+00   0.000E+00   0.000E+00   0.000E+00   1.304E+04
 14   17.000   216.70   0.000E+00   0.000E+00   0.000E+00   0.000E+00   0.000E+00   1.535E+04
 15   16.000   216.70   0.000E+00   0.000E+00   0.000E+00   0.000E+00   0.000E+00   1.809E+04
 16   15.000   216.70   0.000E+00   0.000E+00   0.000E+00   0.000E+00   0.000E+00   2.134E+04
 17   14.000   216.70   0.000E+00   0.000E+00   0.000E+00   0.000E+00   0.000E+00   2.521E+04
 18   13.000   216.70   0.000E+00   0.000E+00   0.000E+00   0.000E+00   0.000E+00   2.983E+04
 19   12.000   216.70   0.000E+00   0.000E+00   0.000E+00   0.000E+00   0.000E+00   3.536E+04
 20   11.000   216.75   0.000E+00   0.000E+00   0.000E+00   0.000E+00   0.000E+00   4.201E+04
 21   10.000   220.10   0.000E+00   0.000E+00   0.000E+00   0.000E+00   0.000E+00   4.986E+04
 22    9.000   226.55   0.000E+00   0.000E+00   0.000E+00   0.000E+00   0.000E+00   5.898E+04
 23    8.000   233.00   0.000E+00   0.000E+00   0.000E+00   0.000E+00   0.000E+00   6.955E+04
 24    7.000   239.50   0.000E+00   0.000E+00   0.000E+00   0.000E+00   0.000E+00   8.179E+04
 25    6.000   246.00   0.000E+00   0.000E+00   0.000E+00   0.000E+00   0.000E+00   9.594E+04
 26    5.000   252.50   0.000E+00   0.000E+00   0.000E+00   0.000E+00   0.000E+00   1.123E+05
 27    4.000   258.99   0.000E+00   0.000E+00   0.000E+00   0.000E+00   0.000E+00   1.311E+05
 28    3.000   265.49   0.000E+00   0.000E+00   0.000E+00   0.000E+00   0.000E+00   1.528E+05
 29    2.000   271.99   0.000E+00   0.000E+00   0.000E+00   0.000E+00   0.000E+00   1.778E+05
 30    1.000   278.49   0.000E+00   0.000E+00   0.000E+00   0.000E+00   0.000E+00   2.065E+05
 31    0.000   284.99   0.000E+00   0.000E+00   0.000E+00   0.000E+00   0.000E+00   2.396E+05



1 J     Z       N2 CONT    MOL SCAT       AER 1       AER 2       AER 3       AER 4       CIRRUS
       (KM)

  1   50.000   2.287E-06   5.803E-03   0.000E+00   0.000E+00   0.000E+00   1.507E-05   0.000E+00
  2   45.000   8.234E-06   1.140E-02   0.000E+00   0.000E+00   0.000E+00   2.983E-05   0.000E+00
  3   40.000   3.167E-05   2.247E-02   0.000E+00   0.000E+00   0.000E+00   5.870E-05   0.000E+00
  4   35.000   1.336E-04   4.550E-02   0.000E+00   0.000E+00   0.000E+00   1.172E-04   0.000E+00
  5   30.000   6.063E-04   9.502E-02   0.000E+00   0.000E+00   8.300E-05   1.582E-04   0.000E+00
  6   25.000   2.845E-03   2.028E-01   0.000E+00   0.000E+00   4.392E-04   1.582E-04   0.000E+00
  7   24.000   3.883E-03   2.364E-01   0.000E+00   0.000E+00   6.014E-04   1.582E-04   0.000E+00
  8   23.000   5.308E-03   2.757E-01   0.000E+00   0.000E+00   8.469E-04   1.582E-04   0.000E+00
  9   22.000   7.266E-03   3.219E-01   0.000E+00   0.000E+00   1.204E-03   1.582E-04   0.000E+00
 10   21.000   9.962E-03   3.760E-01   0.000E+00   0.000E+00   1.663E-03   1.582E-04   0.000E+00
 11   20.000   1.368E-02   4.395E-01   0.000E+00   0.000E+00   2.208E-03   1.582E-04   0.000E+00
 12   19.000   1.878E-02   5.140E-01   0.000E+00   0.000E+00   2.793E-03   1.582E-04   0.000E+00
 13   18.000   2.576E-02   6.011E-01   0.000E+00   0.000E+00   3.343E-03   1.582E-04   0.000E+00
 14   17.000   3.531E-02   7.030E-01   0.000E+00   0.000E+00   3.816E-03   1.582E-04   0.000E+00
 15   16.000   4.838E-02   8.222E-01   0.000E+00   0.000E+00   4.219E-03   1.582E-04   0.000E+00
 16   15.000   6.626E-02   9.616E-01   0.000E+00   0.000E+00   4.608E-03   1.582E-04   0.000E+00
 17   14.000   9.074E-02   1.125E+00   0.000E+00   0.000E+00   5.026E-03   1.582E-04   0.000E+00
 18   13.000   1.243E-01   1.316E+00   0.000E+00   0.000E+00   5.504E-03   1.582E-04   0.000E+00
 19   12.000   1.701E-01   1.539E+00   0.000E+00   0.000E+00   6.081E-03   1.582E-04   0.000E+00
 20   11.000   2.329E-01   1.800E+00   0.000E+00   0.000E+00   6.798E-03   1.582E-04   0.000E+00
 21   10.000   3.161E-01   2.101E+00   0.000E+00   5.700E-04   7.198E-03   1.582E-04   0.000E+00
 22    9.000   4.225E-01   2.441E+00   0.000E+00   2.024E-03   7.198E-03   1.582E-04   0.000E+00
 23    8.000   5.578E-01   2.825E+00   0.000E+00   4.540E-03   7.198E-03   1.582E-04   0.000E+00
 24    7.000   7.288E-01   3.256E+00   0.000E+00   9.194E-03   7.198E-03   1.582E-04   0.000E+00
 25    6.000   9.434E-01   3.739E+00   0.000E+00   1.614E-02   7.198E-03   1.582E-04   0.000E+00
 26    5.000   1.211E+00   4.279E+00   0.000E+00   2.462E-02   7.198E-03   1.582E-04   0.000E+00
 27    4.000   1.543E+00   4.881E+00   0.000E+00   3.801E-02   7.198E-03   1.582E-04   0.000E+00
 28    3.000   1.954E+00   5.549E+00   0.000E+00   6.372E-02   7.198E-03   1.582E-04   0.000E+00
 29    2.000   2.457E+00   6.289E+00   3.105E-02   8.102E-02   7.198E-03   1.582E-04   0.000E+00
 30    1.000   3.073E+00   7.108E+00   3.122E-01   8.102E-02   7.198E-03   1.582E-04   0.000E+00
 31    0.000   3.823E+00   8.011E+00   1.082E+00   8.102E-02   7.198E-03   1.582E-04   0.000E+00



1  J    Z       H2O       O3        CO2       CO        CH4       N2O       O2        NH3       NO        NO2       SO2
      (KM)    (                                                      ATM CM                                             )

   1   50.00  0.00E+00  0.00E+00  5.80E+00  0.00E+00  0.00E+00  0.00E+00  1.21E+02  0.00E+00  0.00E+00  0.00E+00  0.00E+00
   2   45.00  0.00E+00  0.00E+00  1.14E+01  0.00E+00  0.00E+00  0.00E+00  2.38E+02  0.00E+00  0.00E+00  0.00E+00  0.00E+00
   3   40.00  0.00E+00  0.00E+00  2.25E+01  0.00E+00  0.00E+00  0.00E+00  4.69E+02  0.00E+00  0.00E+00  0.00E+00  0.00E+00
   4   35.00  0.00E+00  0.00E+00  4.55E+01  0.00E+00  0.00E+00  0.00E+00  9.50E+02  0.00E+00  0.00E+00  0.00E+00  0.00E+00
   5   30.00  0.00E+00  0.00E+00  9.50E+01  0.00E+00  0.00E+00  0.00E+00  1.98E+03  0.00E+00  0.00E+00  0.00E+00  0.00E+00
   6   25.00  0.00E+00  0.00E+00  2.03E+02  0.00E+00  0.00E+00  0.00E+00  4.24E+03  0.00E+00  0.00E+00  0.00E+00  0.00E+00
   7   24.00  0.00E+00  0.00E+00  2.36E+02  0.00E+00  0.00E+00  0.00E+00  4.94E+03  0.00E+00  0.00E+00  0.00E+00  0.00E+00
   8   23.00  0.00E+00  0.00E+00  2.76E+02  0.00E+00  0.00E+00  0.00E+00  5.76E+03  0.00E+00  0.00E+00  0.00E+00  0.00E+00
   9   22.00  0.00E+00  0.00E+00  3.22E+02  0.00E+00  0.00E+00  0.00E+00  6.72E+03  0.00E+00  0.00E+00  0.00E+00  0.00E+00
  10   21.00  0.00E+00  0.00E+00  3.76E+02  0.00E+00  0.00E+00  0.00E+00  7.85E+03  0.00E+00  0.00E+00  0.00E+00  0.00E+00
  11   20.00  0.00E+00  0.00E+00  4.39E+02  0.00E+00  0.00E+00  0.00E+00  9.18E+03  0.00E+00  0.00E+00  0.00E+00  0.00E+00
  12   19.00  0.00E+00  0.00E+00  5.14E+02  0.00E+00  0.00E+00  0.00E+00  1.07E+04  0.00E+00  0.00E+00  0.00E+00  0.00E+00
  13   18.00  0.00E+00  0.00E+00  6.01E+02  0.00E+00  0.00E+00  0.00E+00  1.26E+04  0.00E+00  0.00E+00  0.00E+00  0.00E+00
  14   17.00  0.00E+00  0.00E+00  7.03E+02  0.00E+00  0.00E+00  0.00E+00  1.47E+04  0.00E+00  0.00E+00  0.00E+00  0.00E+00
  15   16.00  0.00E+00  0.00E+00  8.22E+02  0.00E+00  0.00E+00  0.00E+00  1.72E+04  0.00E+00  0.00E+00  0.00E+00  0.00E+00
  16   15.00  0.00E+00  0.00E+00  9.61E+02  0.00E+00  0.00E+00  0.00E+00  2.01E+04  0.00E+00  0.00E+00  0.00E+00  0.00E+00
  17   14.00  0.00E+00  0.00E+00  1.12E+03  0.00E+00  0.00E+00  0.00E+00  2.35E+04  0.00E+00  0.00E+00  0.00E+00  0.00E+00
  18   13.00  0.00E+00  0.00E+00  1.31E+03  0.00E+00  0.00E+00  0.00E+00  2.75E+04  0.00E+00  0.00E+00  0.00E+00  0.00E+00
  19   12.00  0.00E+00  0.00E+00  1.54E+03  0.00E+00  0.00E+00  0.00E+00  3.21E+04  0.00E+00  0.00E+00  0.00E+00  0.00E+00
  20   11.00  0.00E+00  0.00E+00  1.80E+03  0.00E+00  0.00E+00  0.00E+00  3.76E+04  0.00E+00  0.00E+00  0.00E+00  0.00E+00
  21   10.00  0.00E+00  0.00E+00  2.10E+03  0.00E+00  0.00E+00  0.00E+00  4.39E+04  0.00E+00  0.00E+00  0.00E+00  0.00E+00
  22    9.00  0.00E+00  0.00E+00  2.44E+03  0.00E+00  0.00E+00  0.00E+00  5.10E+04  0.00E+00  0.00E+00  0.00E+00  0.00E+00
  23    8.00  0.00E+00  0.00E+00  2.82E+03  0.00E+00  0.00E+00  0.00E+00  5.90E+04  0.00E+00  0.00E+00  0.00E+00  0.00E+00
  24    7.00  0.00E+00  0.00E+00  3.25E+03  0.00E+00  0.00E+00  0.00E+00  6.80E+04  0.00E+00  0.00E+00  0.00E+00  0.00E+00
  25    6.00  0.00E+00  0.00E+00  3.74E+03  0.00E+00  0.00E+00  0.00E+00  7.81E+04  0.00E+00  0.00E+00  0.00E+00  0.00E+00
  26    5.00  0.00E+00  0.00E+00  4.28E+03  0.00E+00  0.00E+00  0.00E+00  8.94E+04  0.00E+00  0.00E+00  0.00E+00  0.00E+00
  27    4.00  0.00E+00  0.00E+00  4.88E+03  0.00E+00  0.00E+00  0.00E+00  1.02E+05  0.00E+00  0.00E+00  0.00E+00  0.00E+00
  28    3.00  0.00E+00  0.00E+00  5.54E+03  0.00E+00  0.00E+00  0.00E+00  1.16E+05  0.00E+00  0.00E+00  0.00E+00  0.00E+00
  29    2.00  0.00E+00  0.00E+00  6.28E+03  0.00E+00  0.00E+00  0.00E+00  1.31E+05  0.00E+00  0.00E+00  0.00E+00  0.00E+00
  30    1.00  0.00E+00  0.00E+00  7.10E+03  0.00E+00  0.00E+00  0.00E+00  1.48E+05  0.00E+00  0.00E+00  0.00E+00  0.00E+00
  31    0.00  0.00E+00  0.00E+00  8.01E+03  0.00E+00  0.00E+00  0.00E+00  1.67E+05  0.00E+00  0.00E+00  0.00E+00  0.00E+00



1  J    Z      CFC-11    CFC-12    CFC-13    CFC-14    CFC-22    CFC-113   CFC-114   CFC-115   CLONO2     HNO4     CHCL2F 
                CCL4      N2O5  
      (KM)    (                                                   ATM CM                                                )

   1   50.00  0.00E+00  0.00E+00  0.00E+00  0.00E+00  0.00E+00  0.00E+00  0.00E+00  0.00E+00  0.00E+00  0.00E+00  0.00E+00
              0.00E+00  0.00E+00
   2   45.00  0.00E+00  0.00E+00  0.00E+00  0.00E+00  0.00E+00  0.00E+00  0.00E+00  0.00E+00  0.00E+00  0.00E+00  0.00E+00
              0.00E+00  0.00E+00
   3   40.00  0.00E+00  0.00E+00  0.00E+00  0.00E+00  0.00E+00  0.00E+00  0.00E+00  0.00E+00  0.00E+00  0.00E+00  0.00E+00
              0.00E+00  0.00E+00
   4   35.00  0.00E+00  0.00E+00  0.00E+00  0.00E+00  0.00E+00  0.00E+00  0.00E+00  0.00E+00  0.00E+00  0.00E+00  0.00E+00
              0.00E+00  0.00E+00
   5   30.00  0.00E+00  0.00E+00  0.00E+00  0.00E+00  0.00E+00  0.00E+00  0.00E+00  0.00E+00  0.00E+00  0.00E+00  0.00E+00
              0.00E+00  0.00E+00
   6   25.00  0.00E+00  0.00E+00  0.00E+00  0.00E+00  0.00E+00  0.00E+00  0.00E+00  0.00E+00  0.00E+00  0.00E+00  0.00E+00
              0.00E+00  0.00E+00
   7   24.00  0.00E+00  0.00E+00  0.00E+00  0.00E+00  0.00E+00  0.00E+00  0.00E+00  0.00E+00  0.00E+00  0.00E+00  0.00E+00
              0.00E+00  0.00E+00
   8   23.00  0.00E+00  0.00E+00  0.00E+00  0.00E+00  0.00E+00  0.00E+00  0.00E+00  0.00E+00  0.00E+00  0.00E+00  0.00E+00
              0.00E+00  0.00E+00
   9   22.00  0.00E+00  0.00E+00  0.00E+00  0.00E+00  0.00E+00  0.00E+00  0.00E+00  0.00E+00  0.00E+00  0.00E+00  0.00E+00
              0.00E+00  0.00E+00
  10   21.00  0.00E+00  0.00E+00  0.00E+00  0.00E+00  0.00E+00  0.00E+00  0.00E+00  0.00E+00  0.00E+00  0.00E+00  0.00E+00
              0.00E+00  0.00E+00
  11   20.00  0.00E+00  0.00E+00  0.00E+00  0.00E+00  0.00E+00  0.00E+00  0.00E+00  0.00E+00  0.00E+00  0.00E+00  0.00E+00
              0.00E+00  0.00E+00
  12   19.00  0.00E+00  0.00E+00  0.00E+00  0.00E+00  0.00E+00  0.00E+00  0.00E+00  0.00E+00  0.00E+00  0.00E+00  0.00E+00
              0.00E+00  0.00E+00
  13   18.00  0.00E+00  0.00E+00  0.00E+00  0.00E+00  0.00E+00  0.00E+00  0.00E+00  0.00E+00  0.00E+00  0.00E+00  0.00E+00
              0.00E+00  0.00E+00
  14   17.00  0.00E+00  0.00E+00  0.00E+00  0.00E+00  0.00E+00  0.00E+00  0.00E+00  0.00E+00  0.00E+00  0.00E+00  0.00E+00
              0.00E+00  0.00E+00
  15   16.00  0.00E+00  0.00E+00  0.00E+00  0.00E+00  0.00E+00  0.00E+00  0.00E+00  0.00E+00  0.00E+00  0.00E+00  0.00E+00
              0.00E+00  0.00E+00
  16   15.00  0.00E+00  0.00E+00  0.00E+00  0.00E+00  0.00E+00  0.00E+00  0.00E+00  0.00E+00  0.00E+00  0.00E+00  0.00E+00
              0.00E+00  0.00E+00
  17   14.00  0.00E+00  0.00E+00  0.00E+00  0.00E+00  0.00E+00  0.00E+00  0.00E+00  0.00E+00  0.00E+00  0.00E+00  0.00E+00
              0.00E+00  0.00E+00
  18   13.00  0.00E+00  0.00E+00  0.00E+00  0.00E+00  0.00E+00  0.00E+00  0.00E+00  0.00E+00  0.00E+00  0.00E+00  0.00E+00
              0.00E+00  0.00E+00
  19   12.00  0.00E+00  0.00E+00  0.00E+00  0.00E+00  0.00E+00  0.00E+00  0.00E+00  0.00E+00  0.00E+00  0.00E+00  0.00E+00
              0.00E+00  0.00E+00
  20   11.00  0.00E+00  0.00E+00  0.00E+00  0.00E+00  0.00E+00  0.00E+00  0.00E+00  0.00E+00  0.00E+00  0.00E+00  0.00E+00
              0.00E+00  0.00E+00
  21   10.00  0.00E+00  0.00E+00  0.00E+00  0.00E+00  0.00E+00  0.00E+00  0.00E+00  0.00E+00  0.00E+00  0.00E+00  0.00E+00
              0.00E+00  0.00E+00
  22    9.00  0.00E+00  0.00E+00  0.00E+00  0.00E+00  0.00E+00  0.00E+00  0.00E+00  0.00E+00  0.00E+00  0.00E+00  0.00E+00
              0.00E+00  0.00E+00
  23    8.00  0.00E+00  0.00E+00  0.00E+00  0.00E+00  0.00E+00  0.00E+00  0.00E+00  0.00E+00  0.00E+00  0.00E+00  0.00E+00
              0.00E+00  0.00E+00
  24    7.00  0.00E+00  0.00E+00  0.00E+00  0.00E+00  0.00E+00  0.00E+00  0.00E+00  0.00E+00  0.00E+00  0.00E+00  0.00E+00
              0.00E+00  0.00E+00
  25    6.00  0.00E+00  0.00E+00  0.00E+00  0.00E+00  0.00E+00  0.00E+00  0.00E+00  0.00E+00  0.00E+00  0.00E+00  0.00E+00
              0.00E+00  0.00E+00
  26    5.00  0.00E+00  0.00E+00  0.00E+00  0.00E+00  0.00E+00  0.00E+00  0.00E+00  0.00E+00  0.00E+00  0.00E+00  0.00E+00
              0.00E+00  0.00E+00
  27    4.00  0.00E+00  0.00E+00  0.00E+00  0.00E+00  0.00E+00  0.00E+00  0.00E+00  0.00E+00  0.00E+00  0.00E+00  0.00E+00
              0.00E+00  0.00E+00
  28    3.00  0.00E+00  0.00E+00  0.00E+00  0.00E+00  0.00E+00  0.00E+00  0.00E+00  0.00E+00  0.00E+00  0.00E+00  0.00E+00
              0.00E+00  0.00E+00
  29    2.00  0.00E+00  0.00E+00  0.00E+00  0.00E+00  0.00E+00  0.00E+00  0.00E+00  0.00E+00  0.00E+00  0.00E+00  0.00E+00
              0.00E+00  0.00E+00
  30    1.00  0.00E+00  0.00E+00  0.00E+00  0.00E+00  0.00E+00  0.00E+00  0.00E+00  0.00E+00  0.00E+00  0.00E+00  0.00E+00
              0.00E+00  0.00E+00
  31    0.00  0.00E+00  0.00E+00  0.00E+00  0.00E+00  0.00E+00  0.00E+00  0.00E+00  0.00E+00  0.00E+00  0.00E+00  0.00E+00
              0.00E+00  0.00E+00


0SUMMARY OF THE GEOMETRY CALCULATION

          H1      =     70.000 KM
          H2      =      0.000 KM
          ANGLE   =    180.000 DEG
          RANGE   =     70.000 KM
          BETA    =      0.000 DEG
          PHI     =      0.000 DEG
          HMIN    =      0.000 KM
          BENDING =      0.000 DEG
          LEN     =          0




1EQUIVALENT SEA LEVEL TOTAL ABSORBER AMOUNTS

                 HNO3      O3 UV       CNTMSLF1    CNTMSLF2   CNTMFRN
               (ATM CM)   (ATM CM)     (MOL CM-2)  (MOL CM-2)  (MOL CM-2)  (MOL CM-2)

             0.000E+00   0.000E+00   0.000E+00   0.000E+00   0.000E+00


              N2 CONT    MOL SCAT       AER 1       AER 2       AER 3       AER 4     CIRRUS      MEAN RH
                                                                                                  (PRCNT)

             3.823E+00   8.011E+00   1.082E+00   8.102E-02   7.198E-03   1.582E-04   0.000E+00        0.00


                 H2O        O3          CO2         CO          CH4         N2O          O2
               (                                        ATM CM                            )

             0.000E+00   0.000E+00   8.006E+03   0.000E+00   0.000E+00   0.000E+00   1.673E+05

                 NH3        NO          NO2         SO2
                 (               ATM CM               )

             0.000E+00   0.000E+00   0.000E+00   0.000E+00

             CFC-11      CFC-12      CFC-13      CFC-14      CFC-22      CFC-113     CFC-114
                 (                                      ATM CM                            )

             0.000E+00   0.000E+00   0.000E+00   0.000E+00   0.000E+00   0.000E+00   0.000E+00

             CFC-115     CLONO2       HNO4       CHCL2F       CCL4        N2O5  
                 (                                      ATM CM                            )

             0.000E+00   0.000E+00   0.000E+00   0.000E+00   0.000E+00   0.000E+00
  iv           -5
  iv            0
1                                             RADIANCE(WATTS/CM2-STER-XXX)
0  FREQ   WAVLEN    PATH THERMAL      SURFACE EMISSION    SURFACE REFLECTED     TOTAL RADIANCE   INTEGRAL    TOTAL
  (CM-1) (MICRN)    (CM-1)   (MICRN)    (CM-1)   (MICRN)    (CM-1)   (MICRN)    (CM-1)   (MICRN)    (CM-1)   TRANS

      2. 4999.998  4.38E-10  1.75E-13  5.15E-10  2.06E-13  0.00E+00  0.00E+00  9.53E-10  3.81E-13  9.53E-10  0.44841
      4. 2500.000  4.45E-10  7.12E-13  3.31E-09  5.30E-12  0.00E+00  0.00E+00  3.75E-09  6.01E-12  8.46E-09  0.85043
      6. 1666.666  6.02E-11  2.17E-13  8.34E-09  3.00E-11  0.00E+00  0.00E+00  8.40E-09  3.02E-11  2.53E-08  0.99166
      8. 1250.000  1.06E-10  6.79E-13  1.47E-08  9.38E-11  0.00E+00  0.00E+00  1.48E-08  9.45E-11  5.48E-08  0.99195
     10. 1000.000  9.98E-11  9.98E-13  2.28E-08  2.28E-10  0.00E+00  0.00E+00  2.29E-08  2.29E-10  1.01E-07  0.99537
     12.  833.333  1.47E-09  2.11E-11  3.11E-08  4.48E-10  0.00E+00  0.00E+00  3.26E-08  4.69E-10  1.66E-07  0.94905
     14.  714.286  6.59E-09  1.29E-10  3.67E-08  7.19E-10  0.00E+00  0.00E+00  4.33E-08  8.49E-10  2.52E-07  0.82823
     16.  625.000  6.00E-09  1.54E-10  5.07E-08  1.30E-09  0.00E+00  0.00E+00  5.67E-08  1.45E-09  3.66E-07  0.87937
     18.  555.555  6.41E-10  2.08E-11  7.18E-08  2.33E-09  0.00E+00  0.00E+00  7.24E-08  2.35E-09  5.11E-07  0.99016
     20.  500.000  4.89E-10  1.96E-11  8.85E-08  3.54E-09  0.00E+00  0.00E+00  8.90E-08  3.56E-09  6.89E-07  0.99406
     22.  454.545  8.64E-10  4.18E-11  1.06E-07  5.14E-09  0.00E+00  0.00E+00  1.07E-07  5.18E-09  9.03E-07  0.99156
     24.  416.667  1.18E-08  6.82E-10  1.13E-07  6.52E-09  0.00E+00  0.00E+00  1.25E-07  7.21E-09  1.15E-06  0.89376
     26.  384.615  2.70E-08  1.83E-09  1.17E-07  7.88E-09  0.00E+00  0.00E+00  1.44E-07  9.71E-09  1.44E-06  0.78703
     28.  357.143  1.93E-08  1.51E-09  1.49E-07  1.16E-08  0.00E+00  0.00E+00  1.68E-07  1.32E-08  1.78E-06  0.86881
     30.  333.333  1.75E-09  1.58E-10  1.93E-07  1.74E-08  0.00E+00  0.00E+00  1.95E-07  1.75E-08  2.17E-06  0.99023
     32.  312.500  1.51E-09  1.54E-10  2.19E-07  2.25E-08  0.00E+00  0.00E+00  2.21E-07  2.26E-08  2.61E-06  0.99277
     34.  294.118  1.30E-08  1.50E-09  2.33E-07  2.69E-08  0.00E+00  0.00E+00  2.46E-07  2.84E-08  3.10E-06  0.94247
     36.  277.778  4.04E-08  5.23E-09  2.30E-07  2.97E-08  0.00E+00  0.00E+00  2.70E-07  3.50E-08  3.64E-06  0.83237
     38.  263.158  5.19E-08  7.50E-09  2.46E-07  3.56E-08  0.00E+00  0.00E+00  2.98E-07  4.31E-08  4.24E-06  0.80169
     40.  250.000  2.28E-08  3.65E-09  3.12E-07  4.99E-08  0.00E+00  0.00E+00  3.35E-07  5.35E-08  4.91E-06  0.91968
     42.  238.095  3.62E-09  6.39E-10  3.67E-07  6.47E-08  0.00E+00  0.00E+00  3.71E-07  6.54E-08  5.65E-06  0.98955
     44.  227.273  3.63E-09  7.02E-10  4.01E-07  7.76E-08  0.00E+00  0.00E+00  4.05E-07  7.83E-08  6.46E-06  0.99060
     46.  217.391  2.72E-08  5.75E-09  4.09E-07  8.65E-08  0.00E+00  0.00E+00  4.36E-07  9.23E-08  7.33E-06  0.93125
     48.  208.333  7.81E-08  1.80E-08  3.86E-07  8.89E-08  0.00E+00  0.00E+00  4.64E-07  1.07E-07  8.26E-06  0.81162
     50.  200.000  7.88E-08  1.97E-08  4.23E-07  1.06E-07  0.00E+00  0.00E+00  5.01E-07  1.25E-07  9.26E-06  0.81958
     52.  192.308  3.38E-08  9.13E-09  5.15E-07  1.39E-07  0.00E+00  0.00E+00  5.49E-07  1.48E-07  1.04E-05  0.92756
     54.  185.185  6.15E-09  1.79E-09  5.88E-07  1.71E-07  0.00E+00  0.00E+00  5.94E-07  1.73E-07  1.15E-05  0.98918
     56.  178.571  7.45E-09  2.34E-09  6.28E-07  1.97E-07  0.00E+00  0.00E+00  6.35E-07  1.99E-07  1.28E-05  0.98777
     58.  172.414  6.53E-08  2.20E-08  6.03E-07  2.03E-07  0.00E+00  0.00E+00  6.68E-07  2.25E-07  1.41E-05  0.88881
     60.  166.667  1.35E-07  4.86E-08  5.64E-07  2.03E-07  0.00E+00  0.00E+00  6.99E-07  2.52E-07  1.55E-05  0.78112
     62.  161.290  9.25E-08  3.56E-08  6.60E-07  2.54E-07  0.00E+00  0.00E+00  7.52E-07  2.89E-07  1.71E-05  0.86023
     64.  156.250  1.36E-08  5.56E-09  7.98E-07  3.27E-07  0.00E+00  0.00E+00  8.12E-07  3.33E-07  1.87E-05  0.98213
     66.  151.515  9.62E-09  4.19E-09  8.50E-07  3.70E-07  0.00E+00  0.00E+00  8.60E-07  3.74E-07  2.04E-05  0.98850
     68.  147.059  1.44E-08  6.68E-09  8.93E-07  4.13E-07  0.00E+00  0.00E+00  9.07E-07  4.19E-07  2.22E-05  0.98334
     70.  142.857  9.72E-08  4.76E-08  8.45E-07  4.14E-07  0.00E+00  0.00E+00  9.42E-07  4.62E-07  2.41E-05  0.88323
     72.  138.889  1.72E-07  8.90E-08  8.06E-07  4.18E-07  0.00E+00  0.00E+00  9.78E-07  5.07E-07  2.60E-05  0.80005
     74.  135.135  1.04E-07  5.70E-08  9.38E-07  5.14E-07  0.00E+00  0.00E+00  1.04E-06  5.71E-07  2.81E-05  0.88599
     76.  131.579  1.61E-08  9.30E-09  1.09E-06  6.32E-07  0.00E+00  0.00E+00  1.11E-06  6.41E-07  3.04E-05  0.98507
     78.  128.205  1.67E-08  1.02E-08  1.15E-06  6.97E-07  0.00E+00  0.00E+00  1.16E-06  7.08E-07  3.27E-05  0.98530
     80.  125.000  5.94E-08  3.80E-08  1.15E-06  7.36E-07  0.00E+00  0.00E+00  1.21E-06  7.74E-07  3.51E-05  0.94551
     82.  121.951  1.49E-07  1.00E-07  1.10E-06  7.39E-07  0.00E+00  0.00E+00  1.25E-06  8.39E-07  3.76E-05  0.86439
     84.  119.048  1.69E-07  1.19E-07  1.13E-06  7.99E-07  0.00E+00  0.00E+00  1.30E-06  9.18E-07  4.02E-05  0.85186
     86.  116.279  7.35E-08  5.44E-08  1.30E-06  9.63E-07  0.00E+00  0.00E+00  1.37E-06  1.02E-06  4.29E-05  0.93924
     88.  113.636  2.28E-08  1.77E-08  1.42E-06  1.10E-06  0.00E+00  0.00E+00  1.44E-06  1.12E-06  4.58E-05  0.98389
     90.  111.111  2.48E-08  2.01E-08  1.47E-06  1.19E-06  0.00E+00  0.00E+00  1.50E-06  1.21E-06  4.88E-05  0.98310
     92.  108.696  6.77E-08  5.73E-08  1.48E-06  1.26E-06  0.00E+00  0.00E+00  1.55E-06  1.31E-06  5.19E-05  0.95210
     94.  106.383  1.65E-07  1.46E-07  1.43E-06  1.26E-06  0.00E+00  0.00E+00  1.59E-06  1.41E-06  5.51E-05  0.88300
     96.  104.167  1.66E-07  1.53E-07  1.49E-06  1.37E-06  0.00E+00  0.00E+00  1.65E-06  1.52E-06  5.84E-05  0.88547
     98.  102.041  7.62E-08  7.32E-08  1.66E-06  1.59E-06  0.00E+00  0.00E+00  1.73E-06  1.66E-06  6.19E-05  0.95056
    100.  100.000  3.11E-08  3.11E-08  1.77E-06  1.77E-06  0.00E+00  0.00E+00  1.80E-06  1.80E-06  6.55E-05  0.98254
  iv          105
1                                             RADIANCE(WATTS/CM2-STER-XXX)
0  FREQ   WAVLEN    PATH THERMAL      SURFACE EMISSION    SURFACE REFLECTED     TOTAL RADIANCE   INTEGRAL    TOTAL
  (CM-1) (MICRN)    (CM-1)   (MICRN)    (CM-1)   (MICRN)    (CM-1)   (MICRN)    (CM-1)   (MICRN)    (CM-1)   TRANS

    102.   98.039  3.38E-08  3.51E-08  1.83E-06  1.91E-06  0.00E+00  0.00E+00  1.86E-06  1.94E-06  6.92E-05  0.98160
    104.   96.154  1.09E-07  1.18E-07  1.81E-06  1.95E-06  0.00E+00  0.00E+00  1.92E-06  2.07E-06  7.31E-05  0.93642
    106.   94.340  2.16E-07  2.43E-07  1.74E-06  1.96E-06  0.00E+00  0.00E+00  1.96E-06  2.20E-06  7.70E-05  0.87481
    108.   92.593  1.33E-07  1.55E-07  1.91E-06  2.23E-06  0.00E+00  0.00E+00  2.04E-06  2.38E-06  8.11E-05  0.92721
    110.   90.909  4.39E-08  5.31E-08  2.08E-06  2.51E-06  0.00E+00  0.00E+00  2.12E-06  2.57E-06  8.53E-05  0.97896
    112.   89.286  4.38E-08  5.49E-08  2.14E-06  2.69E-06  0.00E+00  0.00E+00  2.19E-06  2.74E-06  8.97E-05  0.97977
    114.   87.719  4.71E-08  6.12E-08  2.21E-06  2.87E-06  0.00E+00  0.00E+00  2.25E-06  2.93E-06  9.42E-05  0.97885
    116.   86.207  1.13E-07  1.52E-07  2.20E-06  2.96E-06  0.00E+00  0.00E+00  2.31E-06  3.11E-06  9.88E-05  0.94658
    118.   84.746  2.08E-07  2.89E-07  2.15E-06  3.00E-06  0.00E+00  0.00E+00  2.36E-06  3.29E-06  1.04E-04  0.90089
    120.   83.333  1.28E-07  1.84E-07  2.32E-06  3.34E-06  0.00E+00  0.00E+00  2.44E-06  3.52E-06  1.08E-04  0.94246
    122.   81.967  5.60E-08  8.34E-08  2.47E-06  3.68E-06  0.00E+00  0.00E+00  2.53E-06  3.76E-06  1.13E-04  0.97758
    124.   80.645  5.77E-08  8.87E-08  2.54E-06  3.90E-06  0.00E+00  0.00E+00  2.60E-06  3.99E-06  1.19E-04  0.97756
    126.   79.365  8.26E-08  1.31E-07  2.58E-06  4.09E-06  0.00E+00  0.00E+00  2.66E-06  4.23E-06  1.24E-04  0.96752
    128.   78.125  1.52E-07  2.49E-07  2.57E-06  4.21E-06  0.00E+00  0.00E+00  2.72E-06  4.46E-06  1.29E-04  0.93898
    130.   76.923  1.63E-07  2.75E-07  2.63E-06  4.44E-06  0.00E+00  0.00E+00  2.79E-06  4.71E-06  1.35E-04  0.93566
    132.   75.758  9.97E-08  1.74E-07  2.77E-06  4.83E-06  0.00E+00  0.00E+00  2.87E-06  5.00E-06  1.41E-04  0.96335
    134.   74.627  7.56E-08  1.36E-07  2.87E-06  5.16E-06  0.00E+00  0.00E+00  2.95E-06  5.29E-06  1.47E-04  0.97410
    136.   73.529  7.92E-08  1.47E-07  2.94E-06  5.44E-06  0.00E+00  0.00E+00  3.02E-06  5.59E-06  1.53E-04  0.97351
    138.   72.464  9.87E-08  1.88E-07  2.99E-06  5.70E-06  0.00E+00  0.00E+00  3.09E-06  5.88E-06  1.59E-04  0.96709
    140.   71.429  1.51E-07  2.95E-07  3.00E-06  5.89E-06  0.00E+00  0.00E+00  3.15E-06  6.18E-06  1.65E-04  0.94891
    142.   70.423  1.71E-07  3.46E-07  3.05E-06  6.16E-06  0.00E+00  0.00E+00  3.22E-06  6.50E-06  1.72E-04  0.94244
    144.   69.444  9.57E-08  1.98E-07  3.22E-06  6.67E-06  0.00E+00  0.00E+00  3.31E-06  6.87E-06  1.78E-04  0.97079
    146.   68.493  9.89E-08  2.11E-07  3.29E-06  7.00E-06  0.00E+00  0.00E+00  3.38E-06  7.22E-06  1.85E-04  0.97048
    148.   67.568  1.03E-07  2.26E-07  3.36E-06  7.35E-06  0.00E+00  0.00E+00  3.46E-06  7.58E-06  1.92E-04  0.96983
    150.   66.667  1.25E-07  2.80E-07  3.41E-06  7.66E-06  0.00E+00  0.00E+00  3.53E-06  7.94E-06  1.99E-04  0.96368
    152.   65.789  1.74E-07  4.01E-07  3.42E-06  7.91E-06  0.00E+00  0.00E+00  3.60E-06  8.31E-06  2.06E-04  0.94877
    154.   64.935  1.37E-07  3.24E-07  3.54E-06  8.40E-06  0.00E+00  0.00E+00  3.68E-06  8.73E-06  2.14E-04  0.96166
    156.   64.103  1.20E-07  2.92E-07  3.64E-06  8.85E-06  0.00E+00  0.00E+00  3.76E-06  9.14E-06  2.21E-04  0.96777
    158.   63.291  1.24E-07  3.09E-07  3.71E-06  9.26E-06  0.00E+00  0.00E+00  3.83E-06  9.57E-06  2.29E-04  0.96731
    160.   62.500  1.33E-07  3.40E-07  3.77E-06  9.66E-06  0.00E+00  0.00E+00  3.91E-06  1.00E-05  2.37E-04  0.96550
    162.   61.728  1.55E-07  4.07E-07  3.83E-06  1.00E-05  0.00E+00  0.00E+00  3.98E-06  1.04E-05  2.45E-04  0.95992
    164.   60.976  1.61E-07  4.32E-07  3.90E-06  1.05E-05  0.00E+00  0.00E+00  4.06E-06  1.09E-05  2.53E-04  0.95914
    166.   60.241  1.47E-07  4.04E-07  3.99E-06  1.10E-05  0.00E+00  0.00E+00  4.13E-06  1.14E-05  2.61E-04  0.96393
    168.   59.524  1.45E-07  4.10E-07  4.07E-06  1.15E-05  0.00E+00  0.00E+00  4.21E-06  1.19E-05  2.69E-04  0.96511
    170.   58.824  1.49E-07  4.32E-07  4.14E-06  1.20E-05  0.00E+00  0.00E+00  4.29E-06  1.24E-05  2.78E-04  0.96474
    172.   58.140  1.56E-07  4.61E-07  4.21E-06  1.25E-05  0.00E+00  0.00E+00  4.36E-06  1.29E-05  2.87E-04  0.96384
    174.   57.471  1.69E-07  5.12E-07  4.27E-06  1.29E-05  0.00E+00  0.00E+00  4.44E-06  1.34E-05  2.95E-04  0.96117
    176.   56.818  1.73E-07  5.37E-07  4.34E-06  1.35E-05  0.00E+00  0.00E+00  4.52E-06  1.40E-05  3.05E-04  0.96086
    178.   56.180  1.68E-07  5.33E-07  4.43E-06  1.40E-05  0.00E+00  0.00E+00  4.59E-06  1.46E-05  3.14E-04  0.96289
    180.   55.556  1.70E-07  5.50E-07  4.50E-06  1.46E-05  0.00E+00  0.00E+00  4.67E-06  1.51E-05  3.23E-04  0.96324
    182.   54.945  1.74E-07  5.76E-07  4.58E-06  1.52E-05  0.00E+00  0.00E+00  4.75E-06  1.57E-05  3.33E-04  0.96295
    184.   54.348  1.80E-07  6.09E-07  4.65E-06  1.57E-05  0.00E+00  0.00E+00  4.83E-06  1.63E-05  3.42E-04  0.96220
    186.   53.763  1.90E-07  6.59E-07  4.71E-06  1.63E-05  0.00E+00  0.00E+00  4.90E-06  1.70E-05  3.52E-04  0.96049
    188.   53.191  1.89E-07  6.66E-07  4.79E-06  1.69E-05  0.00E+00  0.00E+00  4.98E-06  1.76E-05  3.62E-04  0.96161
    190.   52.632  1.90E-07  6.87E-07  4.87E-06  1.76E-05  0.00E+00  0.00E+00  5.06E-06  1.83E-05  3.72E-04  0.96188
    192.   52.083  1.94E-07  7.17E-07  4.94E-06  1.82E-05  0.00E+00  0.00E+00  5.14E-06  1.89E-05  3.82E-04  0.96163
    194.   51.546  1.99E-07  7.49E-07  5.01E-06  1.89E-05  0.00E+00  0.00E+00  5.21E-06  1.96E-05  3.93E-04  0.96129
    196.   51.020  2.05E-07  7.88E-07  5.08E-06  1.95E-05  0.00E+00  0.00E+00  5.29E-06  2.03E-05  4.03E-04  0.96068
    198.   50.505  2.09E-07  8.21E-07  5.16E-06  2.02E-05  0.00E+00  0.00E+00  5.37E-06  2.10E-05  4.14E-04  0.96042
    200.   50.000  2.12E-07  8.47E-07  5.23E-06  2.09E-05  0.00E+00  0.00E+00  5.44E-06  2.18E-05  4.25E-04  0.96055
  iv          205
1                                             RADIANCE(WATTS/CM2-STER-XXX)
0  FREQ   WAVLEN    PATH THERMAL      SURFACE EMISSION    SURFACE REFLECTED     TOTAL RADIANCE   INTEGRAL    TOTAL
  (CM-1) (MICRN)    (CM-1)   (MICRN)    (CM-1)   (MICRN)    (CM-1)   (MICRN)    (CM-1)   (MICRN)    (CM-1)   TRANS

    202.   49.505  2.16E-07  8.82E-07  5.31E-06  2.16E-05  0.00E+00  0.00E+00  5.52E-06  2.25E-05  4.36E-04  0.96030
    204.   49.020  2.21E-07  9.21E-07  5.38E-06  2.24E-05  0.00E+00  0.00E+00  5.60E-06  2.33E-05  4.47E-04  0.95994
    206.   48.544  2.27E-07  9.62E-07  5.45E-06  2.31E-05  0.00E+00  0.00E+00  5.68E-06  2.41E-05  4.59E-04  0.95952
    208.   48.077  2.32E-07  1.00E-06  5.52E-06  2.39E-05  0.00E+00  0.00E+00  5.75E-06  2.49E-05  4.70E-04  0.95909
    210.   47.619  2.37E-07  1.05E-06  5.59E-06  2.47E-05  0.00E+00  0.00E+00  5.83E-06  2.57E-05  4.82E-04  0.95868
    212.   47.170  2.41E-07  1.08E-06  5.67E-06  2.55E-05  0.00E+00  0.00E+00  5.91E-06  2.65E-05  4.94E-04  0.95856
    214.   46.729  2.46E-07  1.13E-06  5.74E-06  2.63E-05  0.00E+00  0.00E+00  5.98E-06  2.74E-05  5.06E-04  0.95823
    216.   46.296  2.51E-07  1.17E-06  5.81E-06  2.71E-05  0.00E+00  0.00E+00  6.06E-06  2.83E-05  5.18E-04  0.95791
    218.   45.872  2.57E-07  1.22E-06  5.88E-06  2.79E-05  0.00E+00  0.00E+00  6.14E-06  2.92E-05  5.30E-04  0.95757
    220.   45.455  2.62E-07  1.27E-06  5.95E-06  2.88E-05  0.00E+00  0.00E+00  6.21E-06  3.01E-05  5.42E-04  0.95717
    222.   45.045  2.67E-07  1.31E-06  6.02E-06  2.97E-05  0.00E+00  0.00E+00  6.29E-06  3.10E-05  5.55E-04  0.95696
    224.   44.643  2.72E-07  1.36E-06  6.09E-06  3.06E-05  0.00E+00  0.00E+00  6.36E-06  3.19E-05  5.68E-04  0.95667
    226.   44.248  2.77E-07  1.41E-06  6.16E-06  3.15E-05  0.00E+00  0.00E+00  6.44E-06  3.29E-05  5.81E-04  0.95638
    228.   43.860  2.82E-07  1.47E-06  6.23E-06  3.24E-05  0.00E+00  0.00E+00  6.52E-06  3.39E-05  5.94E-04  0.95609
    230.   43.478  2.87E-07  1.52E-06  6.31E-06  3.34E-05  0.00E+00  0.00E+00  6.59E-06  3.49E-05  6.07E-04  0.95579
    232.   43.103  2.92E-07  1.57E-06  6.38E-06  3.43E-05  0.00E+00  0.00E+00  6.67E-06  3.59E-05  6.20E-04  0.95551
    234.   42.735  2.97E-07  1.63E-06  6.45E-06  3.53E-05  0.00E+00  0.00E+00  6.74E-06  3.69E-05  6.34E-04  0.95525
    236.   42.373  3.02E-07  1.68E-06  6.52E-06  3.63E-05  0.00E+00  0.00E+00  6.82E-06  3.80E-05  6.47E-04  0.95498
    238.   42.017  3.07E-07  1.74E-06  6.59E-06  3.73E-05  0.00E+00  0.00E+00  6.89E-06  3.90E-05  6.61E-04  0.95472
    240.   41.667  3.12E-07  1.80E-06  6.65E-06  3.83E-05  0.00E+00  0.00E+00  6.97E-06  4.01E-05  6.75E-04  0.95446
    242.   41.322  3.18E-07  1.86E-06  6.72E-06  3.94E-05  0.00E+00  0.00E+00  7.04E-06  4.12E-05  6.89E-04  0.95419
    244.   40.984  3.23E-07  1.92E-06  6.79E-06  4.04E-05  0.00E+00  0.00E+00  7.12E-06  4.24E-05  7.03E-04  0.95395
    246.   40.650  3.28E-07  1.98E-06  6.86E-06  4.15E-05  0.00E+00  0.00E+00  7.19E-06  4.35E-05  7.18E-04  0.95370
    248.   40.323  3.33E-07  2.05E-06  6.93E-06  4.26E-05  0.00E+00  0.00E+00  7.26E-06  4.47E-05  7.32E-04  0.95346
    250.   40.000  3.38E-07  2.11E-06  7.00E-06  4.37E-05  0.00E+00  0.00E+00  7.34E-06  4.59E-05  7.47E-04  0.95324
    252.   39.683  3.42E-07  2.17E-06  7.07E-06  4.49E-05  0.00E+00  0.00E+00  7.41E-06  4.71E-05  7.62E-04  0.95312
    254.   39.370  3.46E-07  2.23E-06  7.14E-06  4.60E-05  0.00E+00  0.00E+00  7.48E-06  4.83E-05  7.77E-04  0.95303
    256.   39.063  3.50E-07  2.29E-06  7.21E-06  4.72E-05  0.00E+00  0.00E+00  7.56E-06  4.95E-05  7.92E-04  0.95294
    258.   38.760  3.54E-07  2.35E-06  7.27E-06  4.84E-05  0.00E+00  0.00E+00  7.63E-06  5.08E-05  8.07E-04  0.95286
    260.   38.462  3.58E-07  2.42E-06  7.34E-06  4.96E-05  0.00E+00  0.00E+00  7.70E-06  5.21E-05  8.22E-04  0.95277
    262.   38.168  3.62E-07  2.48E-06  7.41E-06  5.09E-05  0.00E+00  0.00E+00  7.77E-06  5.33E-05  8.38E-04  0.95268
    264.   37.879  3.66E-07  2.55E-06  7.48E-06  5.21E-05  0.00E+00  0.00E+00  7.84E-06  5.47E-05  8.54E-04  0.95260
    266.   37.594  3.69E-07  2.61E-06  7.54E-06  5.34E-05  0.00E+00  0.00E+00  7.91E-06  5.60E-05  8.69E-04  0.95252
    268.   37.313  3.73E-07  2.68E-06  7.61E-06  5.47E-05  0.00E+00  0.00E+00  7.98E-06  5.73E-05  8.85E-04  0.95243
    270.   37.037  3.77E-07  2.75E-06  7.68E-06  5.60E-05  0.00E+00  0.00E+00  8.06E-06  5.87E-05  9.02E-04  0.95235
    272.   36.765  3.81E-07  2.82E-06  7.74E-06  5.73E-05  0.00E+00  0.00E+00  8.13E-06  6.01E-05  9.18E-04  0.95227
    274.   36.496  3.85E-07  2.89E-06  7.81E-06  5.86E-05  0.00E+00  0.00E+00  8.20E-06  6.15E-05  9.34E-04  0.95219
    276.   36.232  3.89E-07  2.96E-06  7.88E-06  6.00E-05  0.00E+00  0.00E+00  8.26E-06  6.30E-05  9.51E-04  0.95212
    278.   35.971  3.93E-07  3.03E-06  7.94E-06  6.14E-05  0.00E+00  0.00E+00  8.33E-06  6.44E-05  9.67E-04  0.95204
    280.   35.714  3.96E-07  3.11E-06  8.01E-06  6.28E-05  0.00E+00  0.00E+00  8.40E-06  6.59E-05  9.84E-04  0.95196
    282.   35.461  4.00E-07  3.18E-06  8.07E-06  6.42E-05  0.00E+00  0.00E+00  8.47E-06  6.74E-05  1.00E-03  0.95189
    284.   35.211  4.04E-07  3.26E-06  8.13E-06  6.56E-05  0.00E+00  0.00E+00  8.54E-06  6.89E-05  1.02E-03  0.95182
    286.   34.965  4.08E-07  3.34E-06  8.20E-06  6.71E-05  0.00E+00  0.00E+00  8.61E-06  7.04E-05  1.04E-03  0.95174
    288.   34.722  4.11E-07  3.41E-06  8.26E-06  6.85E-05  0.00E+00  0.00E+00  8.67E-06  7.19E-05  1.05E-03  0.95167
    290.   34.483  4.15E-07  3.49E-06  8.33E-06  7.00E-05  0.00E+00  0.00E+00  8.74E-06  7.35E-05  1.07E-03  0.95160
    292.   34.247  4.19E-07  3.57E-06  8.39E-06  7.15E-05  0.00E+00  0.00E+00  8.81E-06  7.51E-05  1.09E-03  0.95153
    294.   34.014  4.23E-07  3.65E-06  8.45E-06  7.30E-05  0.00E+00  0.00E+00  8.87E-06  7.67E-05  1.11E-03  0.95146
    296.   33.784  4.26E-07  3.73E-06  8.51E-06  7.46E-05  0.00E+00  0.00E+00  8.94E-06  7.83E-05  1.12E-03  0.95139
    298.   33.557  4.30E-07  3.82E-06  8.57E-06  7.61E-05  0.00E+00  0.00E+00  9.00E-06  8.00E-05  1.14E-03  0.95133
    300.   33.333  4.34E-07  3.90E-06  8.64E-06  7.77E-05  0.00E+00  0.00E+00  9.07E-06  8.16E-05  1.16E-03  0.95126
  iv          305
1                                             RADIANCE(WATTS/CM2-STER-XXX)
0  FREQ   WAVLEN    PATH THERMAL      SURFACE EMISSION    SURFACE REFLECTED     TOTAL RADIANCE   INTEGRAL    TOTAL
  (CM-1) (MICRN)    (CM-1)   (MICRN)    (CM-1)   (MICRN)    (CM-1)   (MICRN)    (CM-1)   (MICRN)    (CM-1)   TRANS

    302.   33.113  4.37E-07  3.99E-06  8.70E-06  7.93E-05  0.00E+00  0.00E+00  9.13E-06  8.33E-05  1.18E-03  0.95119
    304.   32.895  4.41E-07  4.07E-06  8.76E-06  8.09E-05  0.00E+00  0.00E+00  9.20E-06  8.50E-05  1.20E-03  0.95113
    306.   32.680  4.44E-07  4.16E-06  8.82E-06  8.26E-05  0.00E+00  0.00E+00  9.26E-06  8.67E-05  1.21E-03  0.95107
    308.   32.468  4.48E-07  4.25E-06  8.88E-06  8.42E-05  0.00E+00  0.00E+00  9.32E-06  8.85E-05  1.23E-03  0.95100
    310.   32.258  4.51E-07  4.34E-06  8.94E-06  8.59E-05  0.00E+00  0.00E+00  9.39E-06  9.02E-05  1.25E-03  0.95094
    312.   32.051  4.55E-07  4.43E-06  8.99E-06  8.76E-05  0.00E+00  0.00E+00  9.45E-06  9.20E-05  1.27E-03  0.95088
    314.   31.847  4.58E-07  4.52E-06  9.05E-06  8.93E-05  0.00E+00  0.00E+00  9.51E-06  9.38E-05  1.29E-03  0.95082
    316.   31.646  4.62E-07  4.61E-06  9.11E-06  9.10E-05  0.00E+00  0.00E+00  9.57E-06  9.56E-05  1.31E-03  0.95075
    318.   31.447  4.65E-07  4.71E-06  9.17E-06  9.27E-05  0.00E+00  0.00E+00  9.63E-06  9.74E-05  1.33E-03  0.95070
    320.   31.250  4.69E-07  4.80E-06  9.23E-06  9.45E-05  0.00E+00  0.00E+00  9.69E-06  9.93E-05  1.35E-03  0.95064
    322.   31.056  4.72E-07  4.89E-06  9.28E-06  9.62E-05  0.00E+00  0.00E+00  9.75E-06  1.01E-04  1.37E-03  0.95058
    324.   30.864  4.75E-07  4.99E-06  9.34E-06  9.80E-05  0.00E+00  0.00E+00  9.81E-06  1.03E-04  1.39E-03  0.95052
    326.   30.675  4.79E-07  5.09E-06  9.39E-06  9.98E-05  0.00E+00  0.00E+00  9.87E-06  1.05E-04  1.41E-03  0.95046
    328.   30.488  4.82E-07  5.19E-06  9.45E-06  1.02E-04  0.00E+00  0.00E+00  9.93E-06  1.07E-04  1.43E-03  0.95040
    330.   30.303  4.86E-07  5.29E-06  9.50E-06  1.04E-04  0.00E+00  0.00E+00  9.99E-06  1.09E-04  1.45E-03  0.95034
    332.   30.120  4.89E-07  5.39E-06  9.56E-06  1.05E-04  0.00E+00  0.00E+00  1.00E-05  1.11E-04  1.47E-03  0.95024
    334.   29.940  4.93E-07  5.50E-06  9.61E-06  1.07E-04  0.00E+00  0.00E+00  1.01E-05  1.13E-04  1.49E-03  0.95013
    336.   29.762  4.97E-07  5.62E-06  9.66E-06  1.09E-04  0.00E+00  0.00E+00  1.02E-05  1.15E-04  1.51E-03  0.94996
    338.   29.586  5.02E-07  5.74E-06  9.72E-06  1.11E-04  0.00E+00  0.00E+00  1.02E-05  1.17E-04  1.53E-03  0.94975
    340.   29.412  5.07E-07  5.86E-06  9.77E-06  1.13E-04  0.00E+00  0.00E+00  1.03E-05  1.19E-04  1.55E-03  0.94954
    342.   29.240  5.12E-07  5.99E-06  9.82E-06  1.15E-04  0.00E+00  0.00E+00  1.03E-05  1.21E-04  1.57E-03  0.94933
    344.   29.070  5.17E-07  6.11E-06  9.87E-06  1.17E-04  0.00E+00  0.00E+00  1.04E-05  1.23E-04  1.59E-03  0.94912
    346.   28.902  5.21E-07  6.24E-06  9.92E-06  1.19E-04  0.00E+00  0.00E+00  1.04E-05  1.25E-04  1.61E-03  0.94891
    348.   28.736  5.26E-07  6.37E-06  9.97E-06  1.21E-04  0.00E+00  0.00E+00  1.05E-05  1.27E-04  1.63E-03  0.94871
    350.   28.571  5.31E-07  6.50E-06  1.00E-05  1.23E-04  0.00E+00  0.00E+00  1.05E-05  1.29E-04  1.65E-03  0.94851
    352.   28.409  5.35E-07  6.63E-06  1.01E-05  1.25E-04  0.00E+00  0.00E+00  1.06E-05  1.31E-04  1.67E-03  0.94831
    354.   28.249  5.40E-07  6.77E-06  1.01E-05  1.27E-04  0.00E+00  0.00E+00  1.07E-05  1.33E-04  1.70E-03  0.94811
    356.   28.090  5.45E-07  6.90E-06  1.02E-05  1.29E-04  0.00E+00  0.00E+00  1.07E-05  1.36E-04  1.72E-03  0.94791
    358.   27.933  5.49E-07  7.04E-06  1.02E-05  1.31E-04  0.00E+00  0.00E+00  1.08E-05  1.38E-04  1.74E-03  0.94772
    360.   27.778  5.54E-07  7.18E-06  1.03E-05  1.33E-04  0.00E+00  0.00E+00  1.08E-05  1.40E-04  1.76E-03  0.94753
    362.   27.624  5.58E-07  7.32E-06  1.03E-05  1.35E-04  0.00E+00  0.00E+00  1.09E-05  1.42E-04  1.78E-03  0.94734
    364.   27.473  5.63E-07  7.46E-06  1.03E-05  1.37E-04  0.00E+00  0.00E+00  1.09E-05  1.44E-04  1.80E-03  0.94715
    366.   27.322  5.67E-07  7.60E-06  1.04E-05  1.39E-04  0.00E+00  0.00E+00  1.10E-05  1.47E-04  1.83E-03  0.94696
    368.   27.174  5.72E-07  7.74E-06  1.04E-05  1.41E-04  0.00E+00  0.00E+00  1.10E-05  1.49E-04  1.85E-03  0.94678
    370.   27.027  5.76E-07  7.89E-06  1.05E-05  1.43E-04  0.00E+00  0.00E+00  1.11E-05  1.51E-04  1.87E-03  0.94659
    372.   26.882  5.80E-07  8.03E-06  1.05E-05  1.46E-04  0.00E+00  0.00E+00  1.11E-05  1.54E-04  1.89E-03  0.94641
    374.   26.738  5.85E-07  8.18E-06  1.06E-05  1.48E-04  0.00E+00  0.00E+00  1.11E-05  1.56E-04  1.91E-03  0.94623
    376.   26.596  5.89E-07  8.33E-06  1.06E-05  1.50E-04  0.00E+00  0.00E+00  1.12E-05  1.58E-04  1.94E-03  0.94605
    378.   26.455  5.93E-07  8.48E-06  1.06E-05  1.52E-04  0.00E+00  0.00E+00  1.12E-05  1.61E-04  1.96E-03  0.94588
    380.   26.316  5.98E-07  8.63E-06  1.07E-05  1.54E-04  0.00E+00  0.00E+00  1.13E-05  1.63E-04  1.98E-03  0.94570
    382.   26.178  6.02E-07  8.78E-06  1.07E-05  1.57E-04  0.00E+00  0.00E+00  1.13E-05  1.65E-04  2.00E-03  0.94553
    384.   26.042  6.06E-07  8.94E-06  1.08E-05  1.59E-04  0.00E+00  0.00E+00  1.14E-05  1.68E-04  2.03E-03  0.94535
    386.   25.907  6.10E-07  9.09E-06  1.08E-05  1.61E-04  0.00E+00  0.00E+00  1.14E-05  1.70E-04  2.05E-03  0.94518
    388.   25.773  6.14E-07  9.25E-06  1.08E-05  1.63E-04  0.00E+00  0.00E+00  1.15E-05  1.73E-04  2.07E-03  0.94501
    390.   25.641  6.18E-07  9.41E-06  1.09E-05  1.66E-04  0.00E+00  0.00E+00  1.15E-05  1.75E-04  2.10E-03  0.94484
    392.   25.510  6.22E-07  9.57E-06  1.09E-05  1.68E-04  0.00E+00  0.00E+00  1.15E-05  1.77E-04  2.12E-03  0.94467
    394.   25.381  6.27E-07  9.73E-06  1.10E-05  1.70E-04  0.00E+00  0.00E+00  1.16E-05  1.80E-04  2.14E-03  0.94451
    396.   25.253  6.31E-07  9.89E-06  1.10E-05  1.73E-04  0.00E+00  0.00E+00  1.16E-05  1.82E-04  2.16E-03  0.94434
    398.   25.126  6.35E-07  1.01E-05  1.10E-05  1.75E-04  0.00E+00  0.00E+00  1.17E-05  1.85E-04  2.19E-03  0.94418
    400.   25.000  6.39E-07  1.02E-05  1.11E-05  1.77E-04  0.00E+00  0.00E+00  1.17E-05  1.87E-04  2.21E-03  0.94399
  iv          405
1                                             RADIANCE(WATTS/CM2-STER-XXX)
0  FREQ   WAVLEN    PATH THERMAL      SURFACE EMISSION    SURFACE REFLECTED     TOTAL RADIANCE   INTEGRAL    TOTAL
  (CM-1) (MICRN)    (CM-1)   (MICRN)    (CM-1)   (MICRN)    (CM-1)   (MICRN)    (CM-1)   (MICRN)    (CM-1)   TRANS

    402.   24.876  6.44E-07  1.04E-05  1.11E-05  1.80E-04  0.00E+00  0.00E+00  1.18E-05  1.90E-04  2.24E-03  0.94369
    404.   24.752  6.50E-07  1.06E-05  1.11E-05  1.82E-04  0.00E+00  0.00E+00  1.18E-05  1.92E-04  2.26E-03  0.94337
    406.   24.631  6.56E-07  1.08E-05  1.12E-05  1.84E-04  0.00E+00  0.00E+00  1.18E-05  1.95E-04  2.28E-03  0.94306
    408.   24.510  6.61E-07  1.10E-05  1.12E-05  1.87E-04  0.00E+00  0.00E+00  1.19E-05  1.98E-04  2.31E-03  0.94275
    410.   24.390  6.67E-07  1.12E-05  1.12E-05  1.89E-04  0.00E+00  0.00E+00  1.19E-05  2.00E-04  2.33E-03  0.94244
    412.   24.272  6.72E-07  1.14E-05  1.13E-05  1.91E-04  0.00E+00  0.00E+00  1.19E-05  2.03E-04  2.35E-03  0.94213
    414.   24.155  6.78E-07  1.16E-05  1.13E-05  1.94E-04  0.00E+00  0.00E+00  1.20E-05  2.05E-04  2.38E-03  0.94182
    416.   24.038  6.83E-07  1.18E-05  1.13E-05  1.96E-04  0.00E+00  0.00E+00  1.20E-05  2.08E-04  2.40E-03  0.94151
    418.   23.923  6.89E-07  1.20E-05  1.14E-05  1.99E-04  0.00E+00  0.00E+00  1.21E-05  2.11E-04  2.43E-03  0.94121
    420.   23.810  6.94E-07  1.22E-05  1.14E-05  2.01E-04  0.00E+00  0.00E+00  1.21E-05  2.13E-04  2.45E-03  0.94091
    422.   23.697  6.99E-07  1.25E-05  1.14E-05  2.03E-04  0.00E+00  0.00E+00  1.21E-05  2.16E-04  2.47E-03  0.94061
    424.   23.585  7.05E-07  1.27E-05  1.15E-05  2.06E-04  0.00E+00  0.00E+00  1.22E-05  2.19E-04  2.50E-03  0.94031
    426.   23.474  7.10E-07  1.29E-05  1.15E-05  2.08E-04  0.00E+00  0.00E+00  1.22E-05  2.21E-04  2.52E-03  0.94001
    428.   23.364  7.15E-07  1.31E-05  1.15E-05  2.11E-04  0.00E+00  0.00E+00  1.22E-05  2.24E-04  2.55E-03  0.93972
    430.   23.256  7.21E-07  1.33E-05  1.15E-05  2.13E-04  0.00E+00  0.00E+00  1.23E-05  2.27E-04  2.57E-03  0.93943
    432.   23.148  7.26E-07  1.35E-05  1.16E-05  2.16E-04  0.00E+00  0.00E+00  1.23E-05  2.29E-04  2.60E-03  0.93913
    434.   23.041  7.31E-07  1.38E-05  1.16E-05  2.18E-04  0.00E+00  0.00E+00  1.23E-05  2.32E-04  2.62E-03  0.93884
    436.   22.936  7.36E-07  1.40E-05  1.16E-05  2.21E-04  0.00E+00  0.00E+00  1.24E-05  2.35E-04  2.65E-03  0.93854
    438.   22.831  7.41E-07  1.42E-05  1.16E-05  2.23E-04  0.00E+00  0.00E+00  1.24E-05  2.38E-04  2.67E-03  0.93825
    440.   22.727  7.46E-07  1.44E-05  1.17E-05  2.26E-04  0.00E+00  0.00E+00  1.24E-05  2.40E-04  2.70E-03  0.93796
    442.   22.624  7.53E-07  1.47E-05  1.17E-05  2.28E-04  0.00E+00  0.00E+00  1.24E-05  2.43E-04  2.72E-03  0.93752
    444.   22.523  7.58E-07  1.49E-05  1.17E-05  2.31E-04  0.00E+00  0.00E+00  1.25E-05  2.46E-04  2.75E-03  0.93723
    446.   22.422  7.64E-07  1.52E-05  1.17E-05  2.33E-04  0.00E+00  0.00E+00  1.25E-05  2.49E-04  2.77E-03  0.93682
    448.   22.321  7.71E-07  1.55E-05  1.18E-05  2.36E-04  0.00E+00  0.00E+00  1.25E-05  2.51E-04  2.80E-03  0.93642
    450.   22.222  7.75E-07  1.57E-05  1.18E-05  2.38E-04  0.00E+00  0.00E+00  1.26E-05  2.54E-04  2.82E-03  0.93617
    452.   22.124  7.83E-07  1.60E-05  1.18E-05  2.41E-04  0.00E+00  0.00E+00  1.26E-05  2.57E-04  2.85E-03  0.93565
    454.   22.026  7.89E-07  1.63E-05  1.18E-05  2.44E-04  0.00E+00  0.00E+00  1.26E-05  2.60E-04  2.87E-03  0.93525
    456.   21.930  7.92E-07  1.65E-05  1.18E-05  2.46E-04  0.00E+00  0.00E+00  1.26E-05  2.63E-04  2.90E-03  0.93512
    458.   21.834  7.99E-07  1.68E-05  1.19E-05  2.49E-04  0.00E+00  0.00E+00  1.27E-05  2.65E-04  2.92E-03  0.93458
    460.   21.739  8.04E-07  1.70E-05  1.19E-05  2.51E-04  0.00E+00  0.00E+00  1.27E-05  2.68E-04  2.95E-03  0.93426
    462.   21.645  8.07E-07  1.72E-05  1.19E-05  2.54E-04  0.00E+00  0.00E+00  1.27E-05  2.71E-04  2.97E-03  0.93420
    464.   21.552  8.11E-07  1.75E-05  1.19E-05  2.57E-04  0.00E+00  0.00E+00  1.27E-05  2.74E-04  3.00E-03  0.93395
    466.   21.459  8.18E-07  1.78E-05  1.19E-05  2.59E-04  0.00E+00  0.00E+00  1.27E-05  2.77E-04  3.02E-03  0.93349
    468.   21.368  8.21E-07  1.80E-05  1.20E-05  2.62E-04  0.00E+00  0.00E+00  1.28E-05  2.80E-04  3.05E-03  0.93338
    470.   21.277  8.85E-07  1.95E-05  1.19E-05  2.63E-04  0.00E+00  0.00E+00  1.28E-05  2.82E-04  3.07E-03  0.92765
    472.   21.186  9.05E-07  2.02E-05  1.19E-05  2.65E-04  0.00E+00  0.00E+00  1.28E-05  2.85E-04  3.10E-03  0.92592
    474.   21.097  8.24E-07  1.85E-05  1.20E-05  2.70E-04  0.00E+00  0.00E+00  1.28E-05  2.88E-04  3.13E-03  0.93340
    476.   21.008  8.30E-07  1.88E-05  1.20E-05  2.72E-04  0.00E+00  0.00E+00  1.29E-05  2.91E-04  3.15E-03  0.93295
    478.   20.921  8.34E-07  1.91E-05  1.20E-05  2.75E-04  0.00E+00  0.00E+00  1.29E-05  2.94E-04  3.18E-03  0.93263
    480.   20.833  8.47E-07  1.95E-05  1.20E-05  2.78E-04  0.00E+00  0.00E+00  1.29E-05  2.97E-04  3.20E-03  0.93155
    482.   20.747  8.42E-07  1.96E-05  1.21E-05  2.80E-04  0.00E+00  0.00E+00  1.29E-05  3.00E-04  3.23E-03  0.93206
    484.   20.661  8.52E-07  2.00E-05  1.21E-05  2.83E-04  0.00E+00  0.00E+00  1.29E-05  3.03E-04  3.25E-03  0.93126
    486.   20.576  8.50E-07  2.01E-05  1.21E-05  2.86E-04  0.00E+00  0.00E+00  1.29E-05  3.06E-04  3.28E-03  0.93150
    488.   20.492  8.58E-07  2.04E-05  1.21E-05  2.88E-04  0.00E+00  0.00E+00  1.30E-05  3.09E-04  3.31E-03  0.93082
    490.   20.408  8.66E-07  2.08E-05  1.21E-05  2.91E-04  0.00E+00  0.00E+00  1.30E-05  3.12E-04  3.33E-03  0.93021
    492.   20.325  8.68E-07  2.10E-05  1.21E-05  2.94E-04  0.00E+00  0.00E+00  1.30E-05  3.15E-04  3.36E-03  0.93005
    494.   20.243  8.75E-07  2.13E-05  1.21E-05  2.96E-04  0.00E+00  0.00E+00  1.30E-05  3.17E-04  3.38E-03  0.92947
    496.   20.161  8.75E-07  2.15E-05  1.21E-05  2.99E-04  0.00E+00  0.00E+00  1.30E-05  3.20E-04  3.41E-03  0.92952
    498.   20.080  8.79E-07  2.18E-05  1.22E-05  3.02E-04  0.00E+00  0.00E+00  1.30E-05  3.23E-04  3.44E-03  0.92920
    500.   20.000  8.85E-07  2.21E-05  1.22E-05  3.04E-04  0.00E+00  0.00E+00  1.31E-05  3.26E-04  3.46E-03  0.92869
  iv          505
1                                             RADIANCE(WATTS/CM2-STER-XXX)
0  FREQ   WAVLEN    PATH THERMAL      SURFACE EMISSION    SURFACE REFLECTED     TOTAL RADIANCE   INTEGRAL    TOTAL
  (CM-1) (MICRN)    (CM-1)   (MICRN)    (CM-1)   (MICRN)    (CM-1)   (MICRN)    (CM-1)   (MICRN)    (CM-1)   TRANS

    502.   19.920  8.86E-07  2.23E-05  1.22E-05  3.07E-04  0.00E+00  0.00E+00  1.31E-05  3.29E-04  3.49E-03  0.92868
    504.   19.841  9.05E-07  2.30E-05  1.22E-05  3.09E-04  0.00E+00  0.00E+00  1.31E-05  3.32E-04  3.51E-03  0.92700
    506.   19.763  9.35E-07  2.39E-05  1.21E-05  3.11E-04  0.00E+00  0.00E+00  1.31E-05  3.35E-04  3.54E-03  0.92439
    508.   19.685  1.52E-06  3.92E-05  1.15E-05  2.96E-04  0.00E+00  0.00E+00  1.30E-05  3.35E-04  3.57E-03  0.87157
    510.   19.608  1.27E-06  3.31E-05  1.18E-05  3.06E-04  0.00E+00  0.00E+00  1.30E-05  3.39E-04  3.59E-03  0.89431
    512.   19.531  1.22E-06  3.19E-05  1.18E-05  3.11E-04  0.00E+00  0.00E+00  1.31E-05  3.42E-04  3.62E-03  0.89897
    514.   19.455  1.35E-06  3.57E-05  1.17E-05  3.09E-04  0.00E+00  0.00E+00  1.30E-05  3.45E-04  3.65E-03  0.88597
    516.   19.380  1.34E-06  3.57E-05  1.17E-05  3.12E-04  0.00E+00  0.00E+00  1.31E-05  3.47E-04  3.67E-03  0.88692
    518.   19.305  1.66E-06  4.46E-05  1.13E-05  3.04E-04  0.00E+00  0.00E+00  1.30E-05  3.48E-04  3.70E-03  0.85642
    520.   19.231  1.88E-06  5.09E-05  1.10E-05  2.98E-04  0.00E+00  0.00E+00  1.29E-05  3.49E-04  3.72E-03  0.83476
    522.   19.157  1.78E-06  4.86E-05  1.12E-05  3.04E-04  0.00E+00  0.00E+00  1.30E-05  3.53E-04  3.75E-03  0.84431
    524.   19.084  2.23E-06  6.12E-05  1.06E-05  2.91E-04  0.00E+00  0.00E+00  1.28E-05  3.52E-04  3.77E-03  0.79991
    526.   19.011  2.58E-06  7.15E-05  1.01E-05  2.80E-04  0.00E+00  0.00E+00  1.27E-05  3.52E-04  3.80E-03  0.76440
    528.   18.939  2.36E-06  6.57E-05  1.04E-05  2.91E-04  0.00E+00  0.00E+00  1.28E-05  3.57E-04  3.83E-03  0.78713
    530.   18.868  2.73E-06  7.68E-05  9.92E-06  2.79E-04  0.00E+00  0.00E+00  1.27E-05  3.56E-04  3.85E-03  0.74781
    532.   18.797  2.67E-06  7.56E-05  9.99E-06  2.83E-04  0.00E+00  0.00E+00  1.27E-05  3.58E-04  3.88E-03  0.75276
    534.   18.727  2.26E-06  6.44E-05  1.06E-05  3.01E-04  0.00E+00  0.00E+00  1.28E-05  3.66E-04  3.90E-03  0.79524
    536.   18.657  2.49E-06  7.16E-05  1.03E-05  2.95E-04  0.00E+00  0.00E+00  1.27E-05  3.66E-04  3.93E-03  0.77185
    538.   18.587  2.63E-06  7.61E-05  1.01E-05  2.92E-04  0.00E+00  0.00E+00  1.27E-05  3.68E-04  3.95E-03  0.75787
    540.   18.519  2.20E-06  6.42E-05  1.07E-05  3.11E-04  0.00E+00  0.00E+00  1.29E-05  3.75E-04  3.98E-03  0.80123
    542.   18.450  1.93E-06  5.67E-05  1.11E-05  3.25E-04  0.00E+00  0.00E+00  1.30E-05  3.82E-04  4.00E-03  0.83239
    544.   18.382  6.47E-06  1.91E-04  3.69E-06  1.09E-04  0.00E+00  0.00E+00  1.02E-05  3.01E-04  4.02E-03  0.27708
    546.   18.315  7.11E-06  2.12E-04  3.33E-06  9.94E-05  0.00E+00  0.00E+00  1.04E-05  3.11E-04  4.05E-03  0.25045
    548.   18.248  4.03E-06  1.21E-04  8.37E-06  2.51E-04  0.00E+00  0.00E+00  1.24E-05  3.72E-04  4.07E-03  0.62815
    550.   18.182  3.57E-06  1.08E-04  8.90E-06  2.69E-04  0.00E+00  0.00E+00  1.25E-05  3.77E-04  4.10E-03  0.66821
    552.   18.116  3.41E-06  1.04E-04  9.14E-06  2.79E-04  0.00E+00  0.00E+00  1.26E-05  3.83E-04  4.12E-03  0.68626
    554.   18.051  3.69E-06  1.13E-04  8.78E-06  2.70E-04  0.00E+00  0.00E+00  1.25E-05  3.83E-04  4.15E-03  0.65904
    556.   17.986  4.62E-06  1.43E-04  7.52E-06  2.32E-04  0.00E+00  0.00E+00  1.21E-05  3.75E-04  4.17E-03  0.56386
    558.   17.921  5.06E-06  1.58E-04  6.94E-06  2.16E-04  0.00E+00  0.00E+00  1.20E-05  3.74E-04  4.19E-03  0.52037
    560.   17.857  4.81E-06  1.51E-04  7.31E-06  2.29E-04  0.00E+00  0.00E+00  1.21E-05  3.80E-04  4.22E-03  0.54860
    562.   17.794  5.57E-06  1.76E-04  6.31E-06  1.99E-04  0.00E+00  0.00E+00  1.19E-05  3.75E-04  4.24E-03  0.47352
    564.   17.730  6.67E-06  2.12E-04  4.70E-06  1.50E-04  0.00E+00  0.00E+00  1.14E-05  3.62E-04  4.26E-03  0.35270
    566.   17.668  7.10E-06  2.27E-04  4.02E-06  1.29E-04  0.00E+00  0.00E+00  1.11E-05  3.56E-04  4.29E-03  0.30168
    568.   17.606  7.47E-06  2.41E-04  3.29E-06  1.06E-04  0.00E+00  0.00E+00  1.08E-05  3.47E-04  4.31E-03  0.24706
    570.   17.544  7.73E-06  2.51E-04  2.56E-06  8.32E-05  0.00E+00  0.00E+00  1.03E-05  3.34E-04  4.33E-03  0.19196
    572.   17.483  8.02E-06  2.62E-04  1.84E-06  6.01E-05  0.00E+00  0.00E+00  9.85E-06  3.22E-04  4.35E-03  0.13769
    574.   17.422  8.22E-06  2.71E-04  9.97E-07  3.29E-05  0.00E+00  0.00E+00  9.21E-06  3.04E-04  4.37E-03  0.07482
    576.   17.361  7.87E-06  2.61E-04  6.14E-07  2.04E-05  0.00E+00  0.00E+00  8.49E-06  2.82E-04  4.38E-03  0.04608
    578.   17.301  7.73E-06  2.58E-04  5.12E-07  1.71E-05  0.00E+00  0.00E+00  8.24E-06  2.75E-04  4.40E-03  0.03845
    580.   17.241  7.67E-06  2.58E-04  1.93E-07  6.50E-06  0.00E+00  0.00E+00  7.87E-06  2.65E-04  4.42E-03  0.01449
    582.   17.182  7.05E-06  2.39E-04  3.06E-08  1.04E-06  0.00E+00  0.00E+00  7.08E-06  2.40E-04  4.43E-03  0.00230
    584.   17.123  7.01E-06  2.39E-04  4.86E-08  1.66E-06  0.00E+00  0.00E+00  7.06E-06  2.41E-04  4.44E-03  0.00365
    586.   17.065  6.58E-06  2.26E-04  9.19E-09  3.16E-07  0.00E+00  0.00E+00  6.58E-06  2.26E-04  4.46E-03  0.00069
    588.   17.007  6.59E-06  2.28E-04  2.60E-09  8.99E-08  0.00E+00  0.00E+00  6.59E-06  2.28E-04  4.47E-03  0.00020
    590.   16.949  6.25E-06  2.18E-04  1.67E-09  5.81E-08  0.00E+00  0.00E+00  6.25E-06  2.18E-04  4.48E-03  0.00013
    592.   16.892  6.17E-06  2.16E-04  6.41E-10  2.24E-08  0.00E+00  0.00E+00  6.17E-06  2.16E-04  4.50E-03  0.00005
    594.   16.835  5.74E-06  2.03E-04  7.13E-12  2.51E-10  0.00E+00  0.00E+00  5.74E-06  2.03E-04  4.51E-03  0.00000
    596.   16.779  5.61E-06  1.99E-04  2.52E-13  8.95E-12  0.00E+00  0.00E+00  5.61E-06  1.99E-04  4.52E-03  0.00000
    598.   16.722  5.60E-06  2.00E-04  3.24E-16  1.16E-14  0.00E+00  0.00E+00  5.60E-06  2.00E-04  4.53E-03  0.00000
    600.   16.667  5.53E-06  1.99E-04  6.24E-13  2.25E-11  0.00E+00  0.00E+00  5.53E-06  1.99E-04  4.54E-03  0.00000
  iv          605
1                                             RADIANCE(WATTS/CM2-STER-XXX)
0  FREQ   WAVLEN    PATH THERMAL      SURFACE EMISSION    SURFACE REFLECTED     TOTAL RADIANCE   INTEGRAL    TOTAL
  (CM-1) (MICRN)    (CM-1)   (MICRN)    (CM-1)   (MICRN)    (CM-1)   (MICRN)    (CM-1)   (MICRN)    (CM-1)   TRANS

    602.   16.611  5.47E-06  1.98E-04  5.57E-13  2.02E-11  0.00E+00  0.00E+00  5.47E-06  1.98E-04  4.55E-03  0.00000
    604.   16.556  5.32E-06  1.94E-04  4.59E-14  1.67E-12  0.00E+00  0.00E+00  5.32E-06  1.94E-04  4.56E-03  0.00000
    606.   16.502  5.35E-06  1.96E-04  1.62E-14  5.93E-13  0.00E+00  0.00E+00  5.35E-06  1.96E-04  4.57E-03  0.00000
    608.   16.447  5.33E-06  1.97E-04  4.74E-15  1.75E-13  0.00E+00  0.00E+00  5.33E-06  1.97E-04  4.58E-03  0.00000
    610.   16.393  5.25E-06  1.95E-04  1.38E-14  5.15E-13  0.00E+00  0.00E+00  5.25E-06  1.95E-04  4.59E-03  0.00000
    612.   16.340  5.29E-06  1.98E-04  1.37E-14  5.15E-13  0.00E+00  0.00E+00  5.29E-06  1.98E-04  4.60E-03  0.00000
    614.   16.287  5.26E-06  1.98E-04  4.61E-17  1.74E-15  0.00E+00  0.00E+00  5.26E-06  1.98E-04  4.62E-03  0.00000
    616.   16.234  5.74E-06  2.18E-04  9.33E-32  3.54E-30  0.00E+00  0.00E+00  5.74E-06  2.18E-04  4.63E-03  0.00000
    618.   16.181  6.50E-06  2.48E-04  0.00E+00  0.00E+00  0.00E+00  0.00E+00  6.50E-06  2.48E-04  4.64E-03  0.00000
    620.   16.129  5.13E-06  1.97E-04  5.37E-21  2.07E-19  0.00E+00  0.00E+00  5.13E-06  1.97E-04  4.65E-03  0.00000
    622.   16.077  5.19E-06  2.01E-04  5.44E-21  2.11E-19  0.00E+00  0.00E+00  5.19E-06  2.01E-04  4.66E-03  0.00000
    624.   16.026  5.29E-06  2.06E-04  1.58E-22  6.16E-21  0.00E+00  0.00E+00  5.29E-06  2.06E-04  4.67E-03  0.00000
    626.   15.974  5.25E-06  2.06E-04  3.69E-31  1.45E-29  0.00E+00  0.00E+00  5.25E-06  2.06E-04  4.68E-03  0.00000
    628.   15.924  5.42E-06  2.14E-04  2.02E-34  7.97E-33  0.00E+00  0.00E+00  5.42E-06  2.14E-04  4.69E-03  0.00000
    630.   15.873  5.44E-06  2.16E-04  7.05E-35  2.80E-33  0.00E+00  0.00E+00  5.44E-06  2.16E-04  4.70E-03  0.00000
    632.   15.823  5.52E-06  2.20E-04  5.58E-39  2.23E-37  0.00E+00  0.00E+00  5.52E-06  2.20E-04  4.71E-03  0.00000
    634.   15.773  5.62E-06  2.26E-04  0.00E+00  0.00E+00  0.00E+00  0.00E+00  5.62E-06  2.26E-04  4.73E-03  0.00000
    636.   15.723  5.67E-06  2.29E-04  0.00E+00  0.00E+00  0.00E+00  0.00E+00  5.67E-06  2.29E-04  4.74E-03  0.00000
    638.   15.674  5.84E-06  2.38E-04  0.00E+00  0.00E+00  0.00E+00  0.00E+00  5.84E-06  2.38E-04  4.75E-03  0.00000
    640.   15.625  5.94E-06  2.43E-04  0.00E+00  0.00E+00  0.00E+00  0.00E+00  5.94E-06  2.43E-04  4.76E-03  0.00000
    642.   15.576  5.93E-06  2.45E-04  0.00E+00  0.00E+00  0.00E+00  0.00E+00  5.93E-06  2.45E-04  4.77E-03  0.00000
    644.   15.528  6.22E-06  2.58E-04  0.00E+00  0.00E+00  0.00E+00  0.00E+00  6.22E-06  2.58E-04  4.78E-03  0.00000
    646.   15.480  6.36E-06  2.66E-04  0.00E+00  0.00E+00  0.00E+00  0.00E+00  6.36E-06  2.66E-04  4.80E-03  0.00000
    648.   15.432  6.73E-06  2.83E-04  0.00E+00  0.00E+00  0.00E+00  0.00E+00  6.73E-06  2.83E-04  4.81E-03  0.00000
    650.   15.385  6.96E-06  2.94E-04  0.00E+00  0.00E+00  0.00E+00  0.00E+00  6.96E-06  2.94E-04  4.82E-03  0.00000
    652.   15.337  6.55E-06  2.78E-04  0.00E+00  0.00E+00  0.00E+00  0.00E+00  6.55E-06  2.78E-04  4.84E-03  0.00000
    654.   15.291  6.36E-06  2.72E-04  0.00E+00  0.00E+00  0.00E+00  0.00E+00  6.36E-06  2.72E-04  4.85E-03  0.00000
    656.   15.244  6.30E-06  2.71E-04  0.00E+00  0.00E+00  0.00E+00  0.00E+00  6.30E-06  2.71E-04  4.86E-03  0.00000
    658.   15.198  6.50E-06  2.81E-04  0.00E+00  0.00E+00  0.00E+00  0.00E+00  6.50E-06  2.81E-04  4.88E-03  0.00000
    660.   15.152  6.39E-06  2.78E-04  0.00E+00  0.00E+00  0.00E+00  0.00E+00  6.39E-06  2.78E-04  4.89E-03  0.00000
    662.   15.106  6.64E-06  2.91E-04  0.00E+00  0.00E+00  0.00E+00  0.00E+00  6.64E-06  2.91E-04  4.90E-03  0.00000
    664.   15.060  6.75E-06  2.98E-04  0.00E+00  0.00E+00  0.00E+00  0.00E+00  6.75E-06  2.98E-04  4.92E-03  0.00000
    666.   15.015  6.93E-06  3.08E-04  0.00E+00  0.00E+00  0.00E+00  0.00E+00  6.93E-06  3.08E-04  4.93E-03  0.00000
    668.   14.970  8.25E-06  3.68E-04  0.00E+00  0.00E+00  0.00E+00  0.00E+00  8.25E-06  3.68E-04  4.95E-03  0.00000
    670.   14.925  7.42E-06  3.33E-04  0.00E+00  0.00E+00  0.00E+00  0.00E+00  7.42E-06  3.33E-04  4.96E-03  0.00000
    672.   14.881  6.39E-06  2.89E-04  0.00E+00  0.00E+00  0.00E+00  0.00E+00  6.39E-06  2.89E-04  4.97E-03  0.00000
    674.   14.837  6.38E-06  2.90E-04  0.00E+00  0.00E+00  0.00E+00  0.00E+00  6.38E-06  2.90E-04  4.99E-03  0.00000
    676.   14.793  6.24E-06  2.85E-04  0.00E+00  0.00E+00  0.00E+00  0.00E+00  6.24E-06  2.85E-04  5.00E-03  0.00000
    678.   14.749  6.41E-06  2.95E-04  0.00E+00  0.00E+00  0.00E+00  0.00E+00  6.41E-06  2.95E-04  5.01E-03  0.00000
    680.   14.706  6.19E-06  2.86E-04  0.00E+00  0.00E+00  0.00E+00  0.00E+00  6.19E-06  2.86E-04  5.02E-03  0.00000
    682.   14.663  6.30E-06  2.93E-04  0.00E+00  0.00E+00  0.00E+00  0.00E+00  6.30E-06  2.93E-04  5.04E-03  0.00000
    684.   14.620  6.03E-06  2.82E-04  0.00E+00  0.00E+00  0.00E+00  0.00E+00  6.03E-06  2.82E-04  5.05E-03  0.00000
    686.   14.577  6.03E-06  2.84E-04  0.00E+00  0.00E+00  0.00E+00  0.00E+00  6.03E-06  2.84E-04  5.06E-03  0.00000
    688.   14.535  5.85E-06  2.77E-04  0.00E+00  0.00E+00  0.00E+00  0.00E+00  5.85E-06  2.77E-04  5.07E-03  0.00000
    690.   14.493  5.94E-06  2.83E-04  0.00E+00  0.00E+00  0.00E+00  0.00E+00  5.94E-06  2.83E-04  5.08E-03  0.00000
    692.   14.451  5.47E-06  2.62E-04  0.00E+00  0.00E+00  0.00E+00  0.00E+00  5.47E-06  2.62E-04  5.10E-03  0.00000
    694.   14.409  5.43E-06  2.61E-04  0.00E+00  0.00E+00  0.00E+00  0.00E+00  5.43E-06  2.61E-04  5.11E-03  0.00000
    696.   14.368  5.26E-06  2.55E-04  0.00E+00  0.00E+00  0.00E+00  0.00E+00  5.26E-06  2.55E-04  5.12E-03  0.00000
    698.   14.327  5.16E-06  2.51E-04  0.00E+00  0.00E+00  0.00E+00  0.00E+00  5.16E-06  2.51E-04  5.13E-03  0.00000
    700.   14.286  4.86E-06  2.38E-04  0.00E+00  0.00E+00  0.00E+00  0.00E+00  4.86E-06  2.38E-04  5.14E-03  0.00000
  iv          705
1                                             RADIANCE(WATTS/CM2-STER-XXX)
0  FREQ   WAVLEN    PATH THERMAL      SURFACE EMISSION    SURFACE REFLECTED     TOTAL RADIANCE   INTEGRAL    TOTAL
  (CM-1) (MICRN)    (CM-1)   (MICRN)    (CM-1)   (MICRN)    (CM-1)   (MICRN)    (CM-1)   (MICRN)    (CM-1)   TRANS

    702.   14.245  4.97E-06  2.45E-04  0.00E+00  0.00E+00  0.00E+00  0.00E+00  4.97E-06  2.45E-04  5.15E-03  0.00000
    704.   14.205  4.74E-06  2.35E-04  1.06E-41  5.25E-40  0.00E+00  0.00E+00  4.74E-06  2.35E-04  5.16E-03  0.00000
    706.   14.164  4.54E-06  2.26E-04  5.55E-28  2.77E-26  0.00E+00  0.00E+00  4.54E-06  2.26E-04  5.17E-03  0.00000
    708.   14.124  4.51E-06  2.26E-04  5.55E-28  2.78E-26  0.00E+00  0.00E+00  4.51E-06  2.26E-04  5.17E-03  0.00000
    710.   14.085  4.45E-06  2.24E-04  1.68E-27  8.48E-26  0.00E+00  0.00E+00  4.45E-06  2.24E-04  5.18E-03  0.00000
    712.   14.045  4.38E-06  2.22E-04  1.01E-26  5.12E-25  0.00E+00  0.00E+00  4.38E-06  2.22E-04  5.19E-03  0.00000
    714.   14.006  4.30E-06  2.19E-04  4.79E-21  2.44E-19  0.00E+00  0.00E+00  4.30E-06  2.19E-04  5.20E-03  0.00000
    716.   13.966  4.25E-06  2.18E-04  4.80E-21  2.46E-19  0.00E+00  0.00E+00  4.25E-06  2.18E-04  5.21E-03  0.00000
    718.   13.928  4.41E-06  2.28E-04  8.07E-24  4.16E-22  0.00E+00  0.00E+00  4.41E-06  2.28E-04  5.22E-03  0.00000
    720.   13.889  5.46E-06  2.83E-04  0.00E+00  0.00E+00  0.00E+00  0.00E+00  5.46E-06  2.83E-04  5.23E-03  0.00000
    722.   13.850  4.52E-06  2.35E-04  7.94E-23  4.14E-21  0.00E+00  0.00E+00  4.52E-06  2.35E-04  5.24E-03  0.00000
    724.   13.812  4.20E-06  2.20E-04  1.09E-14  5.71E-13  0.00E+00  0.00E+00  4.20E-06  2.20E-04  5.25E-03  0.00000
    726.   13.774  4.30E-06  2.27E-04  5.79E-14  3.05E-12  0.00E+00  0.00E+00  4.30E-06  2.27E-04  5.25E-03  0.00000
    728.   13.736  4.14E-06  2.19E-04  5.39E-14  2.86E-12  0.00E+00  0.00E+00  4.14E-06  2.19E-04  5.26E-03  0.00000
    730.   13.699  4.13E-06  2.20E-04  7.32E-14  3.90E-12  0.00E+00  0.00E+00  4.13E-06  2.20E-04  5.27E-03  0.00000
    732.   13.661  4.11E-06  2.20E-04  1.27E-14  6.81E-13  0.00E+00  0.00E+00  4.11E-06  2.20E-04  5.28E-03  0.00000
    734.   13.624  4.05E-06  2.18E-04  1.07E-14  5.78E-13  0.00E+00  0.00E+00  4.05E-06  2.18E-04  5.29E-03  0.00000
    736.   13.587  4.10E-06  2.22E-04  2.04E-14  1.11E-12  0.00E+00  0.00E+00  4.10E-06  2.22E-04  5.30E-03  0.00000
    738.   13.550  4.09E-06  2.23E-04  1.32E-15  7.19E-14  0.00E+00  0.00E+00  4.09E-06  2.23E-04  5.30E-03  0.00000
    740.   13.514  4.12E-06  2.26E-04  2.15E-16  1.18E-14  0.00E+00  0.00E+00  4.12E-06  2.26E-04  5.31E-03  0.00000
    742.   13.477  4.26E-06  2.35E-04  2.47E-17  1.36E-15  0.00E+00  0.00E+00  4.26E-06  2.35E-04  5.32E-03  0.00000
    744.   13.441  4.34E-06  2.40E-04  3.96E-11  2.19E-09  0.00E+00  0.00E+00  4.34E-06  2.40E-04  5.33E-03  0.00000
    746.   13.405  4.55E-06  2.53E-04  1.33E-10  7.42E-09  0.00E+00  0.00E+00  4.55E-06  2.53E-04  5.34E-03  0.00001
    748.   13.369  4.69E-06  2.62E-04  4.91E-10  2.75E-08  0.00E+00  0.00E+00  4.69E-06  2.62E-04  5.35E-03  0.00004
    750.   13.333  4.77E-06  2.68E-04  2.15E-09  1.21E-07  0.00E+00  0.00E+00  4.77E-06  2.68E-04  5.36E-03  0.00018
    752.   13.298  5.28E-06  2.99E-04  4.80E-09  2.72E-07  0.00E+00  0.00E+00  5.28E-06  2.99E-04  5.37E-03  0.00040
    754.   13.263  5.26E-06  2.99E-04  1.46E-08  8.33E-07  0.00E+00  0.00E+00  5.28E-06  3.00E-04  5.38E-03  0.00123
    756.   13.228  5.23E-06  2.99E-04  1.45E-08  8.28E-07  0.00E+00  0.00E+00  5.25E-06  3.00E-04  5.39E-03  0.00122
    758.   13.193  5.99E-06  3.44E-04  1.61E-07  9.26E-06  0.00E+00  0.00E+00  6.15E-06  3.53E-04  5.40E-03  0.01364
    760.   13.158  6.18E-06  3.57E-04  5.42E-07  3.13E-05  0.00E+00  0.00E+00  6.72E-06  3.88E-04  5.41E-03  0.04596
    762.   13.123  6.37E-06  3.70E-04  6.67E-07  3.87E-05  0.00E+00  0.00E+00  7.03E-06  4.08E-04  5.43E-03  0.05666
    764.   13.089  6.40E-06  3.73E-04  1.75E-06  1.02E-04  0.00E+00  0.00E+00  8.15E-06  4.75E-04  5.45E-03  0.14889
    766.   13.055  6.15E-06  3.61E-04  1.73E-06  1.01E-04  0.00E+00  0.00E+00  7.88E-06  4.62E-04  5.46E-03  0.14767
    768.   13.021  6.23E-06  3.67E-04  2.05E-06  1.21E-04  0.00E+00  0.00E+00  8.28E-06  4.88E-04  5.48E-03  0.17539
    770.   12.987  6.44E-06  3.82E-04  1.92E-06  1.14E-04  0.00E+00  0.00E+00  8.36E-06  4.95E-04  5.49E-03  0.16450
    772.   12.953  5.87E-06  3.50E-04  3.05E-06  1.82E-04  0.00E+00  0.00E+00  8.92E-06  5.32E-04  5.51E-03  0.26250
    774.   12.920  5.43E-06  3.25E-04  3.69E-06  2.21E-04  0.00E+00  0.00E+00  9.12E-06  5.46E-04  5.53E-03  0.31835
    776.   12.887  5.09E-06  3.06E-04  4.26E-06  2.57E-04  0.00E+00  0.00E+00  9.35E-06  5.63E-04  5.55E-03  0.36828
    778.   12.853  4.45E-06  2.69E-04  5.37E-06  3.25E-04  0.00E+00  0.00E+00  9.82E-06  5.94E-04  5.57E-03  0.46522
    780.   12.821  4.34E-06  2.64E-04  5.52E-06  3.36E-04  0.00E+00  0.00E+00  9.86E-06  6.00E-04  5.59E-03  0.47938
    782.   12.788  4.29E-06  2.62E-04  5.39E-06  3.30E-04  0.00E+00  0.00E+00  9.68E-06  5.92E-04  5.61E-03  0.46944
    784.   12.755  3.85E-06  2.37E-04  6.04E-06  3.71E-04  0.00E+00  0.00E+00  9.89E-06  6.08E-04  5.63E-03  0.52709
    786.   12.723  3.12E-06  1.93E-04  7.20E-06  4.45E-04  0.00E+00  0.00E+00  1.03E-05  6.38E-04  5.65E-03  0.63013
    788.   12.690  2.91E-06  1.81E-04  7.45E-06  4.63E-04  0.00E+00  0.00E+00  1.04E-05  6.44E-04  5.67E-03  0.65384
    790.   12.658  3.79E-06  2.37E-04  5.71E-06  3.56E-04  0.00E+00  0.00E+00  9.50E-06  5.93E-04  5.69E-03  0.50218
    792.   12.626  5.26E-06  3.30E-04  4.57E-07  2.87E-05  0.00E+00  0.00E+00  5.71E-06  3.58E-04  5.70E-03  0.04032
    794.   12.594  4.83E-06  3.05E-04  4.27E-06  2.69E-04  0.00E+00  0.00E+00  9.11E-06  5.74E-04  5.72E-03  0.37801
    796.   12.563  2.93E-06  1.86E-04  7.26E-06  4.60E-04  0.00E+00  0.00E+00  1.02E-05  6.46E-04  5.74E-03  0.64371
    798.   12.531  3.25E-06  2.07E-04  6.58E-06  4.19E-04  0.00E+00  0.00E+00  9.82E-06  6.26E-04  5.76E-03  0.58483
    800.   12.500  2.84E-06  1.82E-04  7.24E-06  4.63E-04  0.00E+00  0.00E+00  1.01E-05  6.45E-04  5.78E-03  0.64516
  iv          805
1                                             RADIANCE(WATTS/CM2-STER-XXX)
0  FREQ   WAVLEN    PATH THERMAL      SURFACE EMISSION    SURFACE REFLECTED     TOTAL RADIANCE   INTEGRAL    TOTAL
  (CM-1) (MICRN)    (CM-1)   (MICRN)    (CM-1)   (MICRN)    (CM-1)   (MICRN)    (CM-1)   (MICRN)    (CM-1)   TRANS

    802.   12.469  3.42E-06  2.20E-04  6.22E-06  4.00E-04  0.00E+00  0.00E+00  9.64E-06  6.20E-04  5.80E-03  0.55588
    804.   12.438  3.00E-06  1.94E-04  6.98E-06  4.51E-04  0.00E+00  0.00E+00  9.98E-06  6.45E-04  5.82E-03  0.62551
    806.   12.407  3.32E-06  2.15E-04  6.35E-06  4.12E-04  0.00E+00  0.00E+00  9.66E-06  6.28E-04  5.84E-03  0.57041
    808.   12.376  3.17E-06  2.07E-04  6.58E-06  4.30E-04  0.00E+00  0.00E+00  9.75E-06  6.37E-04  5.86E-03  0.59283
    810.   12.346  2.62E-06  1.72E-04  7.49E-06  4.92E-04  0.00E+00  0.00E+00  1.01E-05  6.63E-04  5.88E-03  0.67715
    812.   12.315  2.78E-06  1.83E-04  7.15E-06  4.71E-04  0.00E+00  0.00E+00  9.93E-06  6.55E-04  5.90E-03  0.64799
    814.   12.285  2.27E-06  1.50E-04  7.98E-06  5.29E-04  0.00E+00  0.00E+00  1.02E-05  6.79E-04  5.92E-03  0.72507
    816.   12.255  2.49E-06  1.66E-04  7.62E-06  5.07E-04  0.00E+00  0.00E+00  1.01E-05  6.73E-04  5.94E-03  0.69427
    818.   12.225  1.91E-06  1.28E-04  8.48E-06  5.68E-04  0.00E+00  0.00E+00  1.04E-05  6.96E-04  5.96E-03  0.77498
    820.   12.195  2.01E-06  1.35E-04  8.30E-06  5.58E-04  0.00E+00  0.00E+00  1.03E-05  6.94E-04  5.98E-03  0.76087
    822.   12.165  1.68E-06  1.14E-04  8.77E-06  5.92E-04  0.00E+00  0.00E+00  1.05E-05  7.06E-04  6.00E-03  0.80569
    824.   12.136  1.30E-06  8.85E-05  9.28E-06  6.30E-04  0.00E+00  0.00E+00  1.06E-05  7.19E-04  6.02E-03  0.85512
    826.   12.107  1.15E-06  7.86E-05  9.46E-06  6.45E-04  0.00E+00  0.00E+00  1.06E-05  7.24E-04  6.04E-03  0.87407
    828.   12.077  2.24E-06  1.54E-04  7.97E-06  5.46E-04  0.00E+00  0.00E+00  1.02E-05  7.00E-04  6.06E-03  0.73834
    830.   12.048  1.37E-06  9.41E-05  9.14E-06  6.29E-04  0.00E+00  0.00E+00  1.05E-05  7.23E-04  6.08E-03  0.84915
    832.   12.019  9.61E-07  6.65E-05  9.63E-06  6.67E-04  0.00E+00  0.00E+00  1.06E-05  7.33E-04  6.10E-03  0.89772
    834.   11.990  9.40E-07  6.54E-05  9.62E-06  6.69E-04  0.00E+00  0.00E+00  1.06E-05  7.35E-04  6.13E-03  0.89976
    836.   11.962  8.89E-07  6.21E-05  9.66E-06  6.75E-04  0.00E+00  0.00E+00  1.05E-05  7.37E-04  6.15E-03  0.90574
    838.   11.933  9.01E-07  6.33E-05  9.61E-06  6.75E-04  0.00E+00  0.00E+00  1.05E-05  7.38E-04  6.17E-03  0.90394
    840.   11.905  8.52E-07  6.01E-05  9.64E-06  6.80E-04  0.00E+00  0.00E+00  1.05E-05  7.41E-04  6.19E-03  0.90975
    842.   11.876  8.56E-07  6.07E-05  9.61E-06  6.81E-04  0.00E+00  0.00E+00  1.05E-05  7.42E-04  6.21E-03  0.90902
    844.   11.848  8.51E-07  6.06E-05  9.58E-06  6.83E-04  0.00E+00  0.00E+00  1.04E-05  7.43E-04  6.23E-03  0.90931
    846.   11.820  8.47E-07  6.06E-05  9.56E-06  6.84E-04  0.00E+00  0.00E+00  1.04E-05  7.45E-04  6.25E-03  0.90959
    848.   11.792  8.24E-07  5.93E-05  9.55E-06  6.87E-04  0.00E+00  0.00E+00  1.04E-05  7.46E-04  6.27E-03  0.91221
    850.   11.765  8.06E-07  5.82E-05  9.55E-06  6.90E-04  0.00E+00  0.00E+00  1.04E-05  7.48E-04  6.29E-03  0.91426
    852.   11.737  8.03E-07  5.83E-05  9.52E-06  6.91E-04  0.00E+00  0.00E+00  1.03E-05  7.49E-04  6.31E-03  0.91433
    854.   11.710  7.84E-07  5.72E-05  9.51E-06  6.94E-04  0.00E+00  0.00E+00  1.03E-05  7.51E-04  6.33E-03  0.91650
    856.   11.682  7.96E-07  5.83E-05  9.46E-06  6.93E-04  0.00E+00  0.00E+00  1.03E-05  7.52E-04  6.35E-03  0.91491
    858.   11.655  7.84E-07  5.77E-05  9.45E-06  6.95E-04  0.00E+00  0.00E+00  1.02E-05  7.53E-04  6.37E-03  0.91608
    860.   11.628  7.56E-07  5.59E-05  9.45E-06  6.99E-04  0.00E+00  0.00E+00  1.02E-05  7.55E-04  6.39E-03  0.91935
    862.   11.601  7.78E-07  5.78E-05  9.39E-06  6.98E-04  0.00E+00  0.00E+00  1.02E-05  7.56E-04  6.42E-03  0.91637
    864.   11.574  1.08E-06  8.06E-05  8.96E-06  6.69E-04  0.00E+00  0.00E+00  1.00E-05  7.49E-04  6.44E-03  0.87678
    866.   11.547  7.90E-07  5.93E-05  9.31E-06  6.98E-04  0.00E+00  0.00E+00  1.01E-05  7.57E-04  6.46E-03  0.91405
    868.   11.521  7.43E-07  5.59E-05  9.34E-06  7.04E-04  0.00E+00  0.00E+00  1.01E-05  7.60E-04  6.48E-03  0.92003
    870.   11.494  7.41E-07  5.61E-05  9.31E-06  7.05E-04  0.00E+00  0.00E+00  1.00E-05  7.61E-04  6.50E-03  0.91997
    872.   11.468  7.49E-07  5.69E-05  9.26E-06  7.04E-04  0.00E+00  0.00E+00  1.00E-05  7.61E-04  6.52E-03  0.91869
    874.   11.442  7.53E-07  5.75E-05  9.23E-06  7.05E-04  0.00E+00  0.00E+00  9.98E-06  7.62E-04  6.54E-03  0.91790
    876.   11.416  7.60E-07  5.83E-05  9.18E-06  7.05E-04  0.00E+00  0.00E+00  9.94E-06  7.63E-04  6.56E-03  0.91665
    878.   11.390  7.59E-07  5.85E-05  9.15E-06  7.06E-04  0.00E+00  0.00E+00  9.91E-06  7.64E-04  6.58E-03  0.91653
    880.   11.364  7.69E-07  5.96E-05  9.11E-06  7.05E-04  0.00E+00  0.00E+00  9.88E-06  7.65E-04  6.60E-03  0.91499
    882.   11.338  7.72E-07  6.01E-05  9.07E-06  7.06E-04  0.00E+00  0.00E+00  9.84E-06  7.66E-04  6.61E-03  0.91431
    884.   11.312  7.74E-07  6.05E-05  9.04E-06  7.06E-04  0.00E+00  0.00E+00  9.81E-06  7.67E-04  6.63E-03  0.91372
    886.   11.287  7.91E-07  6.21E-05  8.98E-06  7.05E-04  0.00E+00  0.00E+00  9.77E-06  7.67E-04  6.65E-03  0.91123
    888.   11.261  7.94E-07  6.26E-05  8.94E-06  7.05E-04  0.00E+00  0.00E+00  9.74E-06  7.68E-04  6.67E-03  0.91036
    890.   11.236  8.20E-07  6.49E-05  8.88E-06  7.03E-04  0.00E+00  0.00E+00  9.70E-06  7.68E-04  6.69E-03  0.90665
    892.   11.211  8.53E-07  6.79E-05  8.80E-06  7.00E-04  0.00E+00  0.00E+00  9.65E-06  7.68E-04  6.71E-03  0.90141
    894.   11.186  8.53E-07  6.82E-05  8.76E-06  7.00E-04  0.00E+00  0.00E+00  9.62E-06  7.69E-04  6.73E-03  0.90118
    896.   11.161  8.97E-07  7.20E-05  8.67E-06  6.96E-04  0.00E+00  0.00E+00  9.57E-06  7.68E-04  6.75E-03  0.89495
    898.   11.136  9.04E-07  7.29E-05  8.63E-06  6.96E-04  0.00E+00  0.00E+00  9.53E-06  7.69E-04  6.77E-03  0.89349
    900.   11.111  9.58E-07  7.76E-05  8.52E-06  6.90E-04  0.00E+00  0.00E+00  9.48E-06  7.68E-04  6.79E-03  0.88503
  iv          905
1                                             RADIANCE(WATTS/CM2-STER-XXX)
0  FREQ   WAVLEN    PATH THERMAL      SURFACE EMISSION    SURFACE REFLECTED     TOTAL RADIANCE   INTEGRAL    TOTAL
  (CM-1) (MICRN)    (CM-1)   (MICRN)    (CM-1)   (MICRN)    (CM-1)   (MICRN)    (CM-1)   (MICRN)    (CM-1)   TRANS

    902.   11.086  9.63E-07  7.83E-05  8.48E-06  6.90E-04  0.00E+00  0.00E+00  9.45E-06  7.69E-04  6.81E-03  0.88444
    904.   11.062  1.01E-06  8.25E-05  8.38E-06  6.85E-04  0.00E+00  0.00E+00  9.39E-06  7.68E-04  6.83E-03  0.87702
    906.   11.038  1.02E-06  8.36E-05  8.34E-06  6.85E-04  0.00E+00  0.00E+00  9.36E-06  7.69E-04  6.84E-03  0.87594
    908.   11.013  1.08E-06  8.91E-05  8.23E-06  6.78E-04  0.00E+00  0.00E+00  9.31E-06  7.67E-04  6.86E-03  0.86659
    910.   10.989  1.13E-06  9.38E-05  8.12E-06  6.73E-04  0.00E+00  0.00E+00  9.25E-06  7.66E-04  6.88E-03  0.85855
    912.   10.965  1.10E-06  9.18E-05  8.13E-06  6.77E-04  0.00E+00  0.00E+00  9.24E-06  7.68E-04  6.90E-03  0.86290
    914.   10.941  1.15E-06  9.59E-05  8.04E-06  6.72E-04  0.00E+00  0.00E+00  9.19E-06  7.68E-04  6.92E-03  0.85601
    916.   10.917  1.18E-06  9.90E-05  7.96E-06  6.67E-04  0.00E+00  0.00E+00  9.14E-06  7.66E-04  6.94E-03  0.84982
    918.   10.893  1.28E-06  1.08E-04  7.78E-06  6.56E-04  0.00E+00  0.00E+00  9.06E-06  7.64E-04  6.96E-03  0.83413
    920.   10.870  1.32E-06  1.12E-04  7.69E-06  6.50E-04  0.00E+00  0.00E+00  9.01E-06  7.62E-04  6.97E-03  0.82687
    922.   10.846  1.44E-06  1.22E-04  7.48E-06  6.36E-04  0.00E+00  0.00E+00  8.92E-06  7.58E-04  6.99E-03  0.80761
    924.   10.823  1.40E-06  1.20E-04  7.49E-06  6.39E-04  0.00E+00  0.00E+00  8.89E-06  7.59E-04  7.01E-03  0.81148
    926.   10.799  1.53E-06  1.31E-04  7.26E-06  6.22E-04  0.00E+00  0.00E+00  8.78E-06  7.53E-04  7.03E-03  0.78905
    928.   10.776  1.61E-06  1.38E-04  7.10E-06  6.12E-04  0.00E+00  0.00E+00  8.71E-06  7.50E-04  7.04E-03  0.77542
    930.   10.753  1.77E-06  1.53E-04  6.80E-06  5.88E-04  0.00E+00  0.00E+00  8.58E-06  7.42E-04  7.06E-03  0.74530
    932.   10.730  1.99E-06  1.73E-04  6.46E-06  5.61E-04  0.00E+00  0.00E+00  8.44E-06  7.33E-04  7.08E-03  0.70996
    934.   10.707  2.06E-06  1.80E-04  6.27E-06  5.47E-04  0.00E+00  0.00E+00  8.33E-06  7.27E-04  7.09E-03  0.69136
    936.   10.684  2.20E-06  1.92E-04  6.01E-06  5.26E-04  0.00E+00  0.00E+00  8.20E-06  7.19E-04  7.11E-03  0.66518
    938.   10.661  2.30E-06  2.02E-04  5.79E-06  5.09E-04  0.00E+00  0.00E+00  8.09E-06  7.12E-04  7.13E-03  0.64366
    940.   10.638  2.33E-06  2.06E-04  5.68E-06  5.02E-04  0.00E+00  0.00E+00  8.01E-06  7.08E-04  7.14E-03  0.63396
    942.   10.616  2.82E-06  2.50E-04  4.74E-06  4.21E-04  0.00E+00  0.00E+00  7.57E-06  6.71E-04  7.16E-03  0.53134
    944.   10.593  2.43E-06  2.17E-04  5.43E-06  4.84E-04  0.00E+00  0.00E+00  7.87E-06  7.01E-04  7.17E-03  0.61087
    946.   10.571  2.50E-06  2.23E-04  5.28E-06  4.72E-04  0.00E+00  0.00E+00  7.78E-06  6.96E-04  7.19E-03  0.59566
    948.   10.549  2.84E-06  2.55E-04  4.51E-06  4.05E-04  0.00E+00  0.00E+00  7.35E-06  6.60E-04  7.20E-03  0.51002
    950.   10.526  2.38E-06  2.15E-04  5.33E-06  4.81E-04  0.00E+00  0.00E+00  7.71E-06  6.96E-04  7.22E-03  0.60626
    952.   10.504  2.44E-06  2.21E-04  5.23E-06  4.74E-04  0.00E+00  0.00E+00  7.68E-06  6.96E-04  7.24E-03  0.59727
    954.   10.482  2.18E-06  1.98E-04  5.58E-06  5.08E-04  0.00E+00  0.00E+00  7.76E-06  7.06E-04  7.25E-03  0.63917
    956.   10.460  2.41E-06  2.21E-04  5.11E-06  4.67E-04  0.00E+00  0.00E+00  7.52E-06  6.88E-04  7.27E-03  0.58752
    958.   10.438  2.03E-06  1.86E-04  5.79E-06  5.31E-04  0.00E+00  0.00E+00  7.82E-06  7.18E-04  7.28E-03  0.66811
    960.   10.417  1.18E-06  1.08E-04  7.16E-06  6.60E-04  0.00E+00  0.00E+00  8.34E-06  7.68E-04  7.30E-03  0.82954
    962.   10.395  1.49E-06  1.37E-04  6.60E-06  6.11E-04  0.00E+00  0.00E+00  8.09E-06  7.48E-04  7.31E-03  0.76759
    964.   10.373  1.77E-06  1.65E-04  6.12E-06  5.69E-04  0.00E+00  0.00E+00  7.89E-06  7.33E-04  7.33E-03  0.71415
    966.   10.352  2.28E-06  2.13E-04  5.16E-06  4.82E-04  0.00E+00  0.00E+00  7.44E-06  6.94E-04  7.34E-03  0.60478
    968.   10.331  2.48E-06  2.33E-04  4.73E-06  4.43E-04  0.00E+00  0.00E+00  7.21E-06  6.76E-04  7.36E-03  0.55625
    970.   10.309  2.39E-06  2.25E-04  5.00E-06  4.71E-04  0.00E+00  0.00E+00  7.39E-06  6.96E-04  7.37E-03  0.59074
    972.   10.288  2.90E-06  2.74E-04  3.84E-06  3.63E-04  0.00E+00  0.00E+00  6.74E-06  6.37E-04  7.39E-03  0.45550
    974.   10.267  2.39E-06  2.26E-04  4.95E-06  4.70E-04  0.00E+00  0.00E+00  7.34E-06  6.96E-04  7.40E-03  0.58945
    976.   10.246  2.83E-06  2.69E-04  3.97E-06  3.78E-04  0.00E+00  0.00E+00  6.79E-06  6.47E-04  7.42E-03  0.47418
    978.   10.225  2.49E-06  2.38E-04  4.66E-06  4.46E-04  0.00E+00  0.00E+00  7.15E-06  6.84E-04  7.43E-03  0.55887
    980.   10.204  2.34E-06  2.25E-04  4.92E-06  4.72E-04  0.00E+00  0.00E+00  7.26E-06  6.97E-04  7.44E-03  0.59195
    982.   10.183  2.36E-06  2.27E-04  4.86E-06  4.69E-04  0.00E+00  0.00E+00  7.22E-06  6.96E-04  7.46E-03  0.58813
    984.   10.163  2.18E-06  2.11E-04  5.21E-06  5.05E-04  0.00E+00  0.00E+00  7.40E-06  7.16E-04  7.47E-03  0.63300
    986.   10.142  1.45E-06  1.41E-04  6.37E-06  6.19E-04  0.00E+00  0.00E+00  7.81E-06  7.59E-04  7.49E-03  0.77573
    988.   10.121  1.60E-06  1.56E-04  6.11E-06  5.96E-04  0.00E+00  0.00E+00  7.71E-06  7.52E-04  7.50E-03  0.74758
    990.   10.101  1.30E-06  1.27E-04  6.54E-06  6.41E-04  0.00E+00  0.00E+00  7.84E-06  7.68E-04  7.52E-03  0.80337
    992.   10.081  1.14E-06  1.12E-04  6.75E-06  6.64E-04  0.00E+00  0.00E+00  7.89E-06  7.76E-04  7.54E-03  0.83271
    994.   10.060  8.61E-07  8.51E-05  7.10E-06  7.02E-04  0.00E+00  0.00E+00  7.96E-06  7.87E-04  7.55E-03  0.87925
    996.   10.040  8.01E-07  7.95E-05  7.15E-06  7.09E-04  0.00E+00  0.00E+00  7.95E-06  7.89E-04  7.57E-03  0.88863
    998.   10.020  7.71E-07  7.68E-05  7.15E-06  7.13E-04  0.00E+00  0.00E+00  7.92E-06  7.89E-04  7.58E-03  0.89302
   1000.   10.000  7.57E-07  7.57E-05  7.14E-06  7.14E-04  0.00E+00  0.00E+00  7.90E-06  7.90E-04  7.60E-03  0.89467
  iv         1005
1                                             RADIANCE(WATTS/CM2-STER-XXX)
0  FREQ   WAVLEN    PATH THERMAL      SURFACE EMISSION    SURFACE REFLECTED     TOTAL RADIANCE   INTEGRAL    TOTAL
  (CM-1) (MICRN)    (CM-1)   (MICRN)    (CM-1)   (MICRN)    (CM-1)   (MICRN)    (CM-1)   (MICRN)    (CM-1)   TRANS

   1002.    9.980  7.82E-07  7.85E-05  7.07E-06  7.10E-04  0.00E+00  0.00E+00  7.85E-06  7.88E-04  7.62E-03  0.88952
   1004.    9.960  7.79E-07  7.85E-05  7.04E-06  7.10E-04  0.00E+00  0.00E+00  7.82E-06  7.89E-04  7.63E-03  0.88996
   1006.    9.940  7.78E-07  7.87E-05  7.01E-06  7.10E-04  0.00E+00  0.00E+00  7.79E-06  7.88E-04  7.65E-03  0.88982
   1008.    9.921  8.04E-07  8.17E-05  6.95E-06  7.06E-04  0.00E+00  0.00E+00  7.75E-06  7.87E-04  7.66E-03  0.88486
   1010.    9.901  8.37E-07  8.54E-05  6.87E-06  7.01E-04  0.00E+00  0.00E+00  7.70E-06  7.86E-04  7.68E-03  0.87849
   1012.    9.881  8.52E-07  8.72E-05  6.82E-06  6.98E-04  0.00E+00  0.00E+00  7.67E-06  7.86E-04  7.69E-03  0.87599
   1014.    9.862  8.37E-07  8.61E-05  6.81E-06  7.00E-04  0.00E+00  0.00E+00  7.64E-06  7.86E-04  7.71E-03  0.87801
   1016.    9.843  9.07E-07  9.36E-05  6.68E-06  6.90E-04  0.00E+00  0.00E+00  7.59E-06  7.83E-04  7.72E-03  0.86544
   1018.    9.823  9.62E-07  9.97E-05  6.57E-06  6.81E-04  0.00E+00  0.00E+00  7.53E-06  7.81E-04  7.74E-03  0.85480
   1020.    9.804  1.03E-06  1.07E-04  6.44E-06  6.70E-04  0.00E+00  0.00E+00  7.47E-06  7.77E-04  7.75E-03  0.84089
   1022.    9.785  1.12E-06  1.17E-04  6.27E-06  6.55E-04  0.00E+00  0.00E+00  7.39E-06  7.72E-04  7.77E-03  0.82223
   1024.    9.766  1.22E-06  1.28E-04  6.08E-06  6.38E-04  0.00E+00  0.00E+00  7.30E-06  7.65E-04  7.78E-03  0.80087
   1026.    9.747  1.32E-06  1.39E-04  5.88E-06  6.19E-04  0.00E+00  0.00E+00  7.20E-06  7.58E-04  7.80E-03  0.77809
   1028.    9.728  1.42E-06  1.50E-04  5.69E-06  6.02E-04  0.00E+00  0.00E+00  7.11E-06  7.51E-04  7.81E-03  0.75587
   1030.    9.709  1.54E-06  1.64E-04  5.44E-06  5.77E-04  0.00E+00  0.00E+00  6.98E-06  7.41E-04  7.83E-03  0.72522
   1032.    9.690  1.64E-06  1.74E-04  5.25E-06  5.59E-04  0.00E+00  0.00E+00  6.88E-06  7.33E-04  7.84E-03  0.70280
   1034.    9.671  1.72E-06  1.84E-04  5.06E-06  5.41E-04  0.00E+00  0.00E+00  6.78E-06  7.25E-04  7.85E-03  0.68077
   1036.    9.653  1.83E-06  1.96E-04  4.82E-06  5.18E-04  0.00E+00  0.00E+00  6.65E-06  7.14E-04  7.87E-03  0.65123
   1038.    9.634  1.93E-06  2.07E-04  4.61E-06  4.97E-04  0.00E+00  0.00E+00  6.54E-06  7.04E-04  7.88E-03  0.62518
   1040.    9.615  1.99E-06  2.16E-04  4.44E-06  4.81E-04  0.00E+00  0.00E+00  6.44E-06  6.96E-04  7.89E-03  0.60513
   1042.    9.597  2.06E-06  2.24E-04  4.27E-06  4.63E-04  0.00E+00  0.00E+00  6.33E-06  6.88E-04  7.90E-03  0.58393
   1044.    9.579  2.12E-06  2.31E-04  4.12E-06  4.49E-04  0.00E+00  0.00E+00  6.24E-06  6.80E-04  7.92E-03  0.56605
   1046.    9.560  2.38E-06  2.60E-04  3.68E-06  4.03E-04  0.00E+00  0.00E+00  6.06E-06  6.63E-04  7.93E-03  0.50761
   1048.    9.542  2.29E-06  2.52E-04  3.72E-06  4.09E-04  0.00E+00  0.00E+00  6.01E-06  6.61E-04  7.94E-03  0.51599
   1050.    9.524  2.56E-06  2.82E-04  3.01E-06  3.32E-04  0.00E+00  0.00E+00  5.58E-06  6.15E-04  7.95E-03  0.41973
   1052.    9.506  2.41E-06  2.66E-04  3.45E-06  3.82E-04  0.00E+00  0.00E+00  5.86E-06  6.48E-04  7.96E-03  0.48227
   1054.    9.488  2.38E-06  2.65E-04  3.45E-06  3.84E-04  0.00E+00  0.00E+00  5.84E-06  6.48E-04  7.98E-03  0.48472
   1056.    9.470  2.52E-06  2.81E-04  2.97E-06  3.31E-04  0.00E+00  0.00E+00  5.49E-06  6.12E-04  7.99E-03  0.41862
   1058.    9.452  2.32E-06  2.60E-04  3.52E-06  3.94E-04  0.00E+00  0.00E+00  5.85E-06  6.55E-04  8.00E-03  0.49903
   1060.    9.434  2.05E-06  2.30E-04  3.96E-06  4.45E-04  0.00E+00  0.00E+00  6.01E-06  6.75E-04  8.01E-03  0.56305
   1062.    9.416  2.03E-06  2.29E-04  3.95E-06  4.45E-04  0.00E+00  0.00E+00  5.98E-06  6.75E-04  8.02E-03  0.56437
   1064.    9.398  1.45E-06  1.64E-04  5.08E-06  5.75E-04  0.00E+00  0.00E+00  6.53E-06  7.40E-04  8.04E-03  0.72921
   1066.    9.381  1.96E-06  2.23E-04  4.04E-06  4.60E-04  0.00E+00  0.00E+00  6.00E-06  6.82E-04  8.05E-03  0.58285
   1068.    9.363  2.31E-06  2.64E-04  3.21E-06  3.66E-04  0.00E+00  0.00E+00  5.52E-06  6.30E-04  8.06E-03  0.46418
   1070.    9.346  2.50E-06  2.87E-04  2.81E-06  3.22E-04  0.00E+00  0.00E+00  5.32E-06  6.09E-04  8.07E-03  0.40894
   1072.    9.328  2.46E-06  2.82E-04  2.81E-06  3.22E-04  0.00E+00  0.00E+00  5.26E-06  6.05E-04  8.08E-03  0.40950
   1074.    9.311  2.44E-06  2.82E-04  3.02E-06  3.49E-04  0.00E+00  0.00E+00  5.47E-06  6.30E-04  8.09E-03  0.44331
   1076.    9.294  2.71E-06  3.14E-04  2.05E-06  2.37E-04  0.00E+00  0.00E+00  4.76E-06  5.51E-04  8.10E-03  0.30175
   1078.    9.276  2.52E-06  2.93E-04  2.86E-06  3.33E-04  0.00E+00  0.00E+00  5.38E-06  6.25E-04  8.11E-03  0.42354
   1080.    9.259  2.71E-06  3.17E-04  2.09E-06  2.44E-04  0.00E+00  0.00E+00  4.81E-06  5.61E-04  8.12E-03  0.31098
   1082.    9.242  2.72E-06  3.19E-04  2.19E-06  2.56E-04  0.00E+00  0.00E+00  4.91E-06  5.75E-04  8.13E-03  0.32698
   1084.    9.225  2.26E-06  2.65E-04  3.34E-06  3.92E-04  0.00E+00  0.00E+00  5.60E-06  6.58E-04  8.14E-03  0.50096
   1086.    9.208  2.57E-06  3.03E-04  2.64E-06  3.11E-04  0.00E+00  0.00E+00  5.20E-06  6.14E-04  8.15E-03  0.39742
   1088.    9.191  2.28E-06  2.70E-04  3.24E-06  3.84E-04  0.00E+00  0.00E+00  5.52E-06  6.54E-04  8.16E-03  0.49063
   1090.    9.174  2.08E-06  2.48E-04  3.66E-06  4.35E-04  0.00E+00  0.00E+00  5.75E-06  6.83E-04  8.17E-03  0.55681
   1092.    9.158  1.80E-06  2.14E-04  4.16E-06  4.96E-04  0.00E+00  0.00E+00  5.96E-06  7.10E-04  8.19E-03  0.63536
   1094.    9.141  1.41E-06  1.69E-04  4.74E-06  5.68E-04  0.00E+00  0.00E+00  6.16E-06  7.37E-04  8.20E-03  0.72790
   1096.    9.124  1.18E-06  1.41E-04  5.07E-06  6.09E-04  0.00E+00  0.00E+00  6.25E-06  7.50E-04  8.21E-03  0.78155
   1098.    9.107  1.01E-06  1.22E-04  5.28E-06  6.36E-04  0.00E+00  0.00E+00  6.29E-06  7.58E-04  8.22E-03  0.81713
   1100.    9.091  8.90E-07  1.08E-04  5.42E-06  6.56E-04  0.00E+00  0.00E+00  6.31E-06  7.63E-04  8.24E-03  0.84280
  iv         1105
1                                             RADIANCE(WATTS/CM2-STER-XXX)
0  FREQ   WAVLEN    PATH THERMAL      SURFACE EMISSION    SURFACE REFLECTED     TOTAL RADIANCE   INTEGRAL    TOTAL
  (CM-1) (MICRN)    (CM-1)   (MICRN)    (CM-1)   (MICRN)    (CM-1)   (MICRN)    (CM-1)   (MICRN)    (CM-1)   TRANS

   1102.    9.074  8.17E-07  9.93E-05  5.49E-06  6.66E-04  0.00E+00  0.00E+00  6.30E-06  7.66E-04  8.25E-03  0.85731
   1104.    9.058  7.84E-07  9.55E-05  5.50E-06  6.71E-04  0.00E+00  0.00E+00  6.28E-06  7.66E-04  8.26E-03  0.86359
   1106.    9.042  7.63E-07  9.34E-05  5.50E-06  6.73E-04  0.00E+00  0.00E+00  6.26E-06  7.66E-04  8.27E-03  0.86701
   1108.    9.025  7.55E-07  9.27E-05  5.48E-06  6.73E-04  0.00E+00  0.00E+00  6.23E-06  7.65E-04  8.29E-03  0.86805
   1110.    9.009  7.49E-07  9.22E-05  5.46E-06  6.72E-04  0.00E+00  0.00E+00  6.21E-06  7.65E-04  8.30E-03  0.86855
   1112.    8.993  7.43E-07  9.19E-05  5.43E-06  6.72E-04  0.00E+00  0.00E+00  6.18E-06  7.64E-04  8.31E-03  0.86884
   1114.    8.977  7.38E-07  9.16E-05  5.41E-06  6.71E-04  0.00E+00  0.00E+00  6.15E-06  7.63E-04  8.32E-03  0.86908
   1116.    8.961  7.34E-07  9.14E-05  5.39E-06  6.71E-04  0.00E+00  0.00E+00  6.12E-06  7.62E-04  8.34E-03  0.86933
   1118.    8.945  7.29E-07  9.11E-05  5.36E-06  6.70E-04  0.00E+00  0.00E+00  6.09E-06  7.61E-04  8.35E-03  0.86958
   1120.    8.929  7.24E-07  9.08E-05  5.34E-06  6.70E-04  0.00E+00  0.00E+00  6.06E-06  7.61E-04  8.36E-03  0.86983
   1122.    8.913  7.19E-07  9.05E-05  5.32E-06  6.69E-04  0.00E+00  0.00E+00  6.04E-06  7.60E-04  8.37E-03  0.87008
   1124.    8.897  7.14E-07  9.02E-05  5.29E-06  6.69E-04  0.00E+00  0.00E+00  6.01E-06  7.59E-04  8.38E-03  0.87032
   1126.    8.881  7.09E-07  8.99E-05  5.27E-06  6.68E-04  0.00E+00  0.00E+00  5.98E-06  7.58E-04  8.40E-03  0.87056
   1128.    8.865  7.04E-07  8.96E-05  5.25E-06  6.68E-04  0.00E+00  0.00E+00  5.95E-06  7.57E-04  8.41E-03  0.87081
   1130.    8.850  6.99E-07  8.93E-05  5.22E-06  6.67E-04  0.00E+00  0.00E+00  5.92E-06  7.56E-04  8.42E-03  0.87105
   1132.    8.834  6.95E-07  8.90E-05  5.20E-06  6.66E-04  0.00E+00  0.00E+00  5.89E-06  7.55E-04  8.43E-03  0.87128
   1134.    8.818  6.90E-07  8.87E-05  5.18E-06  6.66E-04  0.00E+00  0.00E+00  5.87E-06  7.54E-04  8.44E-03  0.87152
   1136.    8.803  6.85E-07  8.84E-05  5.15E-06  6.65E-04  0.00E+00  0.00E+00  5.84E-06  7.54E-04  8.46E-03  0.87175
   1138.    8.787  6.81E-07  8.81E-05  5.13E-06  6.64E-04  0.00E+00  0.00E+00  5.81E-06  7.53E-04  8.47E-03  0.87199
   1140.    8.772  6.76E-07  8.79E-05  5.11E-06  6.64E-04  0.00E+00  0.00E+00  5.78E-06  7.52E-04  8.48E-03  0.87222
   1142.    8.757  6.71E-07  8.76E-05  5.09E-06  6.63E-04  0.00E+00  0.00E+00  5.76E-06  7.51E-04  8.49E-03  0.87245
   1144.    8.741  6.67E-07  8.73E-05  5.06E-06  6.63E-04  0.00E+00  0.00E+00  5.73E-06  7.50E-04  8.50E-03  0.87268
   1146.    8.726  6.62E-07  8.69E-05  5.04E-06  6.62E-04  0.00E+00  0.00E+00  5.70E-06  7.49E-04  8.51E-03  0.87303
   1148.    8.711  6.56E-07  8.64E-05  5.02E-06  6.61E-04  0.00E+00  0.00E+00  5.67E-06  7.48E-04  8.52E-03  0.87349
   1150.    8.696  6.49E-07  8.58E-05  5.00E-06  6.61E-04  0.00E+00  0.00E+00  5.65E-06  7.47E-04  8.54E-03  0.87417
   1152.    8.681  6.35E-07  8.43E-05  4.99E-06  6.62E-04  0.00E+00  0.00E+00  5.62E-06  7.46E-04  8.55E-03  0.87619
   1154.    8.666  6.21E-07  8.27E-05  4.97E-06  6.63E-04  0.00E+00  0.00E+00  5.60E-06  7.45E-04  8.56E-03  0.87842
   1156.    8.651  6.06E-07  8.10E-05  4.96E-06  6.63E-04  0.00E+00  0.00E+00  5.57E-06  7.44E-04  8.57E-03  0.88066
   1158.    8.636  5.92E-07  7.93E-05  4.95E-06  6.64E-04  0.00E+00  0.00E+00  5.54E-06  7.43E-04  8.58E-03  0.88289
   1160.    8.621  5.77E-07  7.77E-05  4.94E-06  6.65E-04  0.00E+00  0.00E+00  5.52E-06  7.42E-04  8.59E-03  0.88512
   1162.    8.606  5.63E-07  7.60E-05  4.93E-06  6.66E-04  0.00E+00  0.00E+00  5.49E-06  7.42E-04  8.60E-03  0.88734
   1164.    8.591  5.49E-07  7.44E-05  4.92E-06  6.66E-04  0.00E+00  0.00E+00  5.47E-06  7.41E-04  8.61E-03  0.88957
   1166.    8.576  5.35E-07  7.28E-05  4.91E-06  6.67E-04  0.00E+00  0.00E+00  5.44E-06  7.40E-04  8.62E-03  0.89179
   1168.    8.562  5.21E-07  7.11E-05  4.89E-06  6.68E-04  0.00E+00  0.00E+00  5.42E-06  7.39E-04  8.63E-03  0.89401
   1170.    8.547  5.08E-07  6.95E-05  4.88E-06  6.68E-04  0.00E+00  0.00E+00  5.39E-06  7.38E-04  8.65E-03  0.89623
   1172.    8.532  4.94E-07  6.79E-05  4.87E-06  6.69E-04  0.00E+00  0.00E+00  5.36E-06  7.37E-04  8.66E-03  0.89845
   1174.    8.518  4.81E-07  6.63E-05  4.86E-06  6.70E-04  0.00E+00  0.00E+00  5.34E-06  7.36E-04  8.67E-03  0.90066
   1176.    8.503  4.68E-07  6.47E-05  4.85E-06  6.70E-04  0.00E+00  0.00E+00  5.31E-06  7.35E-04  8.68E-03  0.90287
   1178.    8.489  4.54E-07  6.31E-05  4.83E-06  6.71E-04  0.00E+00  0.00E+00  5.29E-06  7.34E-04  8.69E-03  0.90508
   1180.    8.475  4.41E-07  6.15E-05  4.82E-06  6.72E-04  0.00E+00  0.00E+00  5.26E-06  7.33E-04  8.70E-03  0.90729
   1182.    8.460  4.28E-07  5.99E-05  4.81E-06  6.72E-04  0.00E+00  0.00E+00  5.24E-06  7.32E-04  8.71E-03  0.90950
   1184.    8.446  4.16E-07  5.83E-05  4.80E-06  6.73E-04  0.00E+00  0.00E+00  5.21E-06  7.31E-04  8.72E-03  0.91170
   1186.    8.432  4.03E-07  5.67E-05  4.79E-06  6.73E-04  0.00E+00  0.00E+00  5.19E-06  7.30E-04  8.73E-03  0.91390
   1188.    8.418  3.91E-07  5.51E-05  4.77E-06  6.74E-04  0.00E+00  0.00E+00  5.16E-06  7.29E-04  8.74E-03  0.91610
   1190.    8.403  3.78E-07  5.35E-05  4.76E-06  6.74E-04  0.00E+00  0.00E+00  5.14E-06  7.28E-04  8.75E-03  0.91830
   1192.    8.389  3.66E-07  5.20E-05  4.75E-06  6.75E-04  0.00E+00  0.00E+00  5.12E-06  7.27E-04  8.76E-03  0.92049
   1194.    8.375  3.54E-07  5.04E-05  4.74E-06  6.75E-04  0.00E+00  0.00E+00  5.09E-06  7.26E-04  8.77E-03  0.92269
   1196.    8.361  3.42E-07  4.89E-05  4.73E-06  6.76E-04  0.00E+00  0.00E+00  5.07E-06  7.25E-04  8.78E-03  0.92488
   1198.    8.347  3.30E-07  4.73E-05  4.71E-06  6.76E-04  0.00E+00  0.00E+00  5.04E-06  7.24E-04  8.79E-03  0.92706
   1200.    8.333  3.18E-07  4.58E-05  4.70E-06  6.77E-04  0.00E+00  0.00E+00  5.02E-06  7.23E-04  8.80E-03  0.92925
  iv         1205
1                                             RADIANCE(WATTS/CM2-STER-XXX)
0  FREQ   WAVLEN    PATH THERMAL      SURFACE EMISSION    SURFACE REFLECTED     TOTAL RADIANCE   INTEGRAL    TOTAL
  (CM-1) (MICRN)    (CM-1)   (MICRN)    (CM-1)   (MICRN)    (CM-1)   (MICRN)    (CM-1)   (MICRN)    (CM-1)   TRANS

   1202.    8.319  3.06E-07  4.43E-05  4.69E-06  6.77E-04  0.00E+00  0.00E+00  4.99E-06  7.22E-04  8.81E-03  0.93143
   1204.    8.306  2.95E-07  4.27E-05  4.68E-06  6.78E-04  0.00E+00  0.00E+00  4.97E-06  7.20E-04  8.82E-03  0.93362
   1206.    8.292  2.83E-07  4.12E-05  4.66E-06  6.78E-04  0.00E+00  0.00E+00  4.95E-06  7.19E-04  8.83E-03  0.93579
   1208.    8.278  2.72E-07  3.97E-05  4.65E-06  6.79E-04  0.00E+00  0.00E+00  4.92E-06  7.18E-04  8.84E-03  0.93796
   1210.    8.264  2.63E-07  3.86E-05  4.63E-06  6.78E-04  0.00E+00  0.00E+00  4.90E-06  7.17E-04  8.85E-03  0.93931
   1212.    8.251  2.54E-07  3.74E-05  4.62E-06  6.78E-04  0.00E+00  0.00E+00  4.87E-06  7.16E-04  8.86E-03  0.94076
   1214.    8.237  2.46E-07  3.62E-05  4.60E-06  6.78E-04  0.00E+00  0.00E+00  4.85E-06  7.14E-04  8.87E-03  0.94208
   1216.    8.224  2.39E-07  3.54E-05  4.58E-06  6.77E-04  0.00E+00  0.00E+00  4.82E-06  7.13E-04  8.88E-03  0.94272
   1218.    8.210  2.32E-07  3.45E-05  4.56E-06  6.77E-04  0.00E+00  0.00E+00  4.79E-06  7.11E-04  8.89E-03  0.94363
   1220.    8.197  2.29E-07  3.41E-05  4.54E-06  6.75E-04  0.00E+00  0.00E+00  4.77E-06  7.09E-04  8.90E-03  0.94335
   1222.    8.183  2.36E-07  3.53E-05  4.50E-06  6.71E-04  0.00E+00  0.00E+00  4.73E-06  7.07E-04  8.91E-03  0.93979
   1224.    8.170  2.40E-07  3.59E-05  4.46E-06  6.69E-04  0.00E+00  0.00E+00  4.70E-06  7.05E-04  8.92E-03  0.93791
   1226.    8.157  2.47E-07  3.71E-05  4.42E-06  6.65E-04  0.00E+00  0.00E+00  4.67E-06  7.02E-04  8.93E-03  0.93431
   1228.    8.143  2.68E-07  4.04E-05  4.36E-06  6.57E-04  0.00E+00  0.00E+00  4.63E-06  6.97E-04  8.94E-03  0.92480
   1230.    8.130  2.77E-07  4.19E-05  4.31E-06  6.52E-04  0.00E+00  0.00E+00  4.59E-06  6.94E-04  8.95E-03  0.91980
   1232.    8.117  2.94E-07  4.46E-05  4.25E-06  6.45E-04  0.00E+00  0.00E+00  4.54E-06  6.90E-04  8.95E-03  0.91110
   1234.    8.104  3.26E-07  4.97E-05  4.15E-06  6.32E-04  0.00E+00  0.00E+00  4.48E-06  6.82E-04  8.96E-03  0.89432
   1236.    8.091  3.34E-07  5.10E-05  4.10E-06  6.27E-04  0.00E+00  0.00E+00  4.44E-06  6.78E-04  8.97E-03  0.88873
   1238.    8.078  3.71E-07  5.69E-05  3.99E-06  6.11E-04  0.00E+00  0.00E+00  4.36E-06  6.68E-04  8.98E-03  0.86788
   1240.    8.065  3.72E-07  5.73E-05  3.96E-06  6.08E-04  0.00E+00  0.00E+00  4.33E-06  6.66E-04  8.99E-03  0.86595
   1242.    8.052  4.30E-07  6.64E-05  3.78E-06  5.84E-04  0.00E+00  0.00E+00  4.21E-06  6.50E-04  9.00E-03  0.83240
   1244.    8.039  4.29E-07  6.64E-05  3.76E-06  5.82E-04  0.00E+00  0.00E+00  4.19E-06  6.48E-04  9.01E-03  0.83150
   1246.    8.026  4.43E-07  6.88E-05  3.70E-06  5.74E-04  0.00E+00  0.00E+00  4.14E-06  6.43E-04  9.01E-03  0.82175
   1248.    8.013  4.77E-07  7.44E-05  3.57E-06  5.56E-04  0.00E+00  0.00E+00  4.05E-06  6.31E-04  9.02E-03  0.79820
   1250.    8.000  4.45E-07  6.95E-05  3.63E-06  5.67E-04  0.00E+00  0.00E+00  4.08E-06  6.37E-04  9.03E-03  0.81557
   1252.    7.987  4.27E-07  6.70E-05  3.64E-06  5.71E-04  0.00E+00  0.00E+00  4.07E-06  6.38E-04  9.04E-03  0.82255
   1254.    7.974  4.17E-07  6.56E-05  3.63E-06  5.71E-04  0.00E+00  0.00E+00  4.05E-06  6.37E-04  9.05E-03  0.82478
   1256.    7.962  3.63E-07  5.72E-05  3.75E-06  5.91E-04  0.00E+00  0.00E+00  4.11E-06  6.48E-04  9.06E-03  0.85512
   1258.    7.949  2.69E-07  4.26E-05  3.96E-06  6.27E-04  0.00E+00  0.00E+00  4.23E-06  6.69E-04  9.06E-03  0.90819
   1260.    7.937  2.48E-07  3.94E-05  3.99E-06  6.33E-04  0.00E+00  0.00E+00  4.23E-06  6.72E-04  9.07E-03  0.91911
   1262.    7.924  3.24E-07  5.16E-05  3.76E-06  6.00E-04  0.00E+00  0.00E+00  4.09E-06  6.51E-04  9.08E-03  0.87264
   1264.    7.911  3.60E-07  5.76E-05  3.65E-06  5.84E-04  0.00E+00  0.00E+00  4.01E-06  6.41E-04  9.09E-03  0.85097
   1266.    7.899  3.90E-07  6.25E-05  3.56E-06  5.70E-04  0.00E+00  0.00E+00  3.95E-06  6.33E-04  9.10E-03  0.83347
   1268.    7.886  4.41E-07  7.09E-05  3.40E-06  5.47E-04  0.00E+00  0.00E+00  3.85E-06  6.18E-04  9.10E-03  0.80174
   1270.    7.874  4.43E-07  7.14E-05  3.38E-06  5.45E-04  0.00E+00  0.00E+00  3.82E-06  6.16E-04  9.11E-03  0.79991
   1272.    7.862  4.01E-07  6.48E-05  3.48E-06  5.62E-04  0.00E+00  0.00E+00  3.88E-06  6.27E-04  9.12E-03  0.82721
   1274.    7.849  3.99E-07  6.47E-05  3.46E-06  5.62E-04  0.00E+00  0.00E+00  3.86E-06  6.27E-04  9.13E-03  0.82849
   1276.    7.837  4.15E-07  6.76E-05  3.40E-06  5.54E-04  0.00E+00  0.00E+00  3.82E-06  6.21E-04  9.14E-03  0.81813
   1278.    7.825  3.78E-07  6.18E-05  3.48E-06  5.69E-04  0.00E+00  0.00E+00  3.86E-06  6.31E-04  9.14E-03  0.84251
   1280.    7.813  3.77E-07  6.18E-05  3.47E-06  5.68E-04  0.00E+00  0.00E+00  3.85E-06  6.30E-04  9.15E-03  0.84322
   1282.    7.800  3.33E-07  5.48E-05  3.56E-06  5.85E-04  0.00E+00  0.00E+00  3.89E-06  6.40E-04  9.16E-03  0.86975
   1284.    7.788  3.27E-07  5.39E-05  3.56E-06  5.86E-04  0.00E+00  0.00E+00  3.88E-06  6.40E-04  9.17E-03  0.87373
   1286.    7.776  2.88E-07  4.76E-05  3.63E-06  6.00E-04  0.00E+00  0.00E+00  3.92E-06  6.48E-04  9.17E-03  0.89666
   1288.    7.764  2.78E-07  4.62E-05  3.63E-06  6.03E-04  0.00E+00  0.00E+00  3.91E-06  6.49E-04  9.18E-03  0.90218
   1290.    7.752  2.54E-07  4.23E-05  3.67E-06  6.10E-04  0.00E+00  0.00E+00  3.92E-06  6.52E-04  9.19E-03  0.91516
   1292.    7.740  2.42E-07  4.04E-05  3.67E-06  6.13E-04  0.00E+00  0.00E+00  3.92E-06  6.54E-04  9.20E-03  0.92225
   1294.    7.728  2.33E-07  3.90E-05  3.67E-06  6.15E-04  0.00E+00  0.00E+00  3.91E-06  6.54E-04  9.21E-03  0.92679
   1296.    7.716  2.21E-07  3.71E-05  3.68E-06  6.18E-04  0.00E+00  0.00E+00  3.90E-06  6.55E-04  9.21E-03  0.93297
   1298.    7.704  2.18E-07  3.67E-05  3.66E-06  6.17E-04  0.00E+00  0.00E+00  3.88E-06  6.54E-04  9.22E-03  0.93456
   1300.    7.692  2.14E-07  3.61E-05  3.65E-06  6.17E-04  0.00E+00  0.00E+00  3.87E-06  6.53E-04  9.23E-03  0.93633
  iv         1305
1                                             RADIANCE(WATTS/CM2-STER-XXX)
0  FREQ   WAVLEN    PATH THERMAL      SURFACE EMISSION    SURFACE REFLECTED     TOTAL RADIANCE   INTEGRAL    TOTAL
  (CM-1) (MICRN)    (CM-1)   (MICRN)    (CM-1)   (MICRN)    (CM-1)   (MICRN)    (CM-1)   (MICRN)    (CM-1)   TRANS

   1302.    7.680  2.11E-07  3.58E-05  3.64E-06  6.16E-04  0.00E+00  0.00E+00  3.85E-06  6.52E-04  9.24E-03  0.93745
   1304.    7.669  2.10E-07  3.57E-05  3.62E-06  6.15E-04  0.00E+00  0.00E+00  3.83E-06  6.51E-04  9.24E-03  0.93787
   1306.    7.657  2.09E-07  3.57E-05  3.60E-06  6.14E-04  0.00E+00  0.00E+00  3.81E-06  6.50E-04  9.25E-03  0.93823
   1308.    7.645  2.08E-07  3.56E-05  3.58E-06  6.13E-04  0.00E+00  0.00E+00  3.79E-06  6.48E-04  9.26E-03  0.93842
   1310.    7.634  2.09E-07  3.59E-05  3.56E-06  6.11E-04  0.00E+00  0.00E+00  3.77E-06  6.47E-04  9.27E-03  0.93788
   1312.    7.622  2.10E-07  3.61E-05  3.54E-06  6.09E-04  0.00E+00  0.00E+00  3.75E-06  6.45E-04  9.27E-03  0.93733
   1314.    7.610  2.11E-07  3.64E-05  3.52E-06  6.07E-04  0.00E+00  0.00E+00  3.73E-06  6.44E-04  9.28E-03  0.93677
   1316.    7.599  2.12E-07  3.66E-05  3.50E-06  6.05E-04  0.00E+00  0.00E+00  3.71E-06  6.42E-04  9.29E-03  0.93605
   1318.    7.587  2.14E-07  3.71E-05  3.47E-06  6.03E-04  0.00E+00  0.00E+00  3.69E-06  6.40E-04  9.30E-03  0.93467
   1320.    7.576  2.15E-07  3.74E-05  3.45E-06  6.01E-04  0.00E+00  0.00E+00  3.66E-06  6.38E-04  9.30E-03  0.93388
   1322.    7.564  2.17E-07  3.79E-05  3.43E-06  5.99E-04  0.00E+00  0.00E+00  3.64E-06  6.37E-04  9.31E-03  0.93238
   1324.    7.553  2.19E-07  3.84E-05  3.40E-06  5.96E-04  0.00E+00  0.00E+00  3.62E-06  6.35E-04  9.32E-03  0.93105
   1326.    7.541  2.22E-07  3.90E-05  3.38E-06  5.94E-04  0.00E+00  0.00E+00  3.60E-06  6.33E-04  9.33E-03  0.92914
   1328.    7.530  2.25E-07  3.97E-05  3.35E-06  5.91E-04  0.00E+00  0.00E+00  3.58E-06  6.31E-04  9.33E-03  0.92714
   1330.    7.519  2.31E-07  4.08E-05  3.32E-06  5.87E-04  0.00E+00  0.00E+00  3.55E-06  6.28E-04  9.34E-03  0.92357
   1332.    7.508  2.37E-07  4.21E-05  3.29E-06  5.83E-04  0.00E+00  0.00E+00  3.52E-06  6.25E-04  9.35E-03  0.91971
   1334.    7.496  2.42E-07  4.30E-05  3.26E-06  5.80E-04  0.00E+00  0.00E+00  3.50E-06  6.23E-04  9.35E-03  0.91654
   1336.    7.485  2.58E-07  4.61E-05  3.20E-06  5.72E-04  0.00E+00  0.00E+00  3.46E-06  6.18E-04  9.36E-03  0.90599
   1338.    7.474  2.73E-07  4.88E-05  3.15E-06  5.64E-04  0.00E+00  0.00E+00  3.42E-06  6.13E-04  9.37E-03  0.89599
   1340.    7.463  2.81E-07  5.04E-05  3.11E-06  5.59E-04  0.00E+00  0.00E+00  3.39E-06  6.09E-04  9.37E-03  0.89000
   1342.    7.452  3.10E-07  5.58E-05  3.02E-06  5.44E-04  0.00E+00  0.00E+00  3.33E-06  6.00E-04  9.38E-03  0.86874
   1344.    7.440  3.35E-07  6.05E-05  2.94E-06  5.30E-04  0.00E+00  0.00E+00  3.27E-06  5.91E-04  9.39E-03  0.84875
   1346.    7.429  3.43E-07  6.22E-05  2.89E-06  5.24E-04  0.00E+00  0.00E+00  3.24E-06  5.86E-04  9.39E-03  0.84115
   1348.    7.418  3.81E-07  6.91E-05  2.77E-06  5.03E-04  0.00E+00  0.00E+00  3.15E-06  5.72E-04  9.40E-03  0.80899
   1350.    7.407  3.80E-07  6.93E-05  2.75E-06  5.00E-04  0.00E+00  0.00E+00  3.13E-06  5.70E-04  9.41E-03  0.80702
   1352.    7.396  4.12E-07  7.53E-05  2.63E-06  4.81E-04  0.00E+00  0.00E+00  3.04E-06  5.56E-04  9.41E-03  0.77742
   1354.    7.386  3.98E-07  7.29E-05  2.65E-06  4.86E-04  0.00E+00  0.00E+00  3.05E-06  5.59E-04  9.42E-03  0.78757
   1356.    7.375  4.20E-07  7.72E-05  2.56E-06  4.70E-04  0.00E+00  0.00E+00  2.98E-06  5.47E-04  9.42E-03  0.76432
   1358.    7.364  3.93E-07  7.25E-05  2.62E-06  4.83E-04  0.00E+00  0.00E+00  3.01E-06  5.55E-04  9.43E-03  0.78685
   1360.    7.353  3.89E-07  7.19E-05  2.60E-06  4.81E-04  0.00E+00  0.00E+00  2.99E-06  5.53E-04  9.44E-03  0.78651
   1362.    7.342  3.43E-07  6.36E-05  2.71E-06  5.03E-04  0.00E+00  0.00E+00  3.05E-06  5.67E-04  9.44E-03  0.82445
   1364.    7.331  3.04E-07  5.66E-05  2.80E-06  5.21E-04  0.00E+00  0.00E+00  3.10E-06  5.78E-04  9.45E-03  0.85615
   1366.    7.321  2.65E-07  4.95E-05  2.89E-06  5.40E-04  0.00E+00  0.00E+00  3.16E-06  5.90E-04  9.46E-03  0.88983
   1368.    7.310  3.03E-07  5.66E-05  2.77E-06  5.19E-04  0.00E+00  0.00E+00  3.07E-06  5.75E-04  9.46E-03  0.85695
   1370.    7.299  3.55E-07  6.67E-05  2.60E-06  4.88E-04  0.00E+00  0.00E+00  2.96E-06  5.55E-04  9.47E-03  0.80840
   1372.    7.289  3.75E-07  7.07E-05  2.53E-06  4.77E-04  0.00E+00  0.00E+00  2.91E-06  5.48E-04  9.47E-03  0.79199
   1374.    7.278  4.08E-07  7.70E-05  2.42E-06  4.57E-04  0.00E+00  0.00E+00  2.83E-06  5.34E-04  9.48E-03  0.76057
   1376.    7.267  3.95E-07  7.48E-05  2.45E-06  4.64E-04  0.00E+00  0.00E+00  2.84E-06  5.38E-04  9.48E-03  0.77433
   1378.    7.257  4.16E-07  7.91E-05  2.36E-06  4.49E-04  0.00E+00  0.00E+00  2.78E-06  5.28E-04  9.49E-03  0.75174
   1380.    7.246  3.96E-07  7.54E-05  2.42E-06  4.60E-04  0.00E+00  0.00E+00  2.81E-06  5.36E-04  9.50E-03  0.77263
   1382.    7.236  3.83E-07  7.31E-05  2.44E-06  4.66E-04  0.00E+00  0.00E+00  2.82E-06  5.39E-04  9.50E-03  0.78385
   1384.    7.225  3.85E-07  7.38E-05  2.41E-06  4.62E-04  0.00E+00  0.00E+00  2.80E-06  5.36E-04  9.51E-03  0.78003
   1386.    7.215  3.46E-07  6.65E-05  2.51E-06  4.82E-04  0.00E+00  0.00E+00  2.86E-06  5.49E-04  9.51E-03  0.81620
   1388.    7.205  3.31E-07  6.38E-05  2.53E-06  4.88E-04  0.00E+00  0.00E+00  2.87E-06  5.52E-04  9.52E-03  0.82889
   1390.    7.194  3.18E-07  6.15E-05  2.55E-06  4.93E-04  0.00E+00  0.00E+00  2.87E-06  5.55E-04  9.52E-03  0.84010
   1392.    7.184  3.02E-07  5.85E-05  2.58E-06  5.00E-04  0.00E+00  0.00E+00  2.88E-06  5.59E-04  9.53E-03  0.85409
   1394.    7.174  2.98E-07  5.79E-05  2.57E-06  5.00E-04  0.00E+00  0.00E+00  2.87E-06  5.58E-04  9.54E-03  0.85660
   1396.    7.163  2.73E-07  5.32E-05  2.62E-06  5.10E-04  0.00E+00  0.00E+00  2.89E-06  5.64E-04  9.54E-03  0.87644
   1398.    7.153  2.62E-07  5.13E-05  2.63E-06  5.13E-04  0.00E+00  0.00E+00  2.89E-06  5.65E-04  9.55E-03  0.88402
   1400.    7.143  2.57E-07  5.03E-05  2.62E-06  5.14E-04  0.00E+00  0.00E+00  2.88E-06  5.64E-04  9.55E-03  0.88745
  iv         1405
1                                             RADIANCE(WATTS/CM2-STER-XXX)
0  FREQ   WAVLEN    PATH THERMAL      SURFACE EMISSION    SURFACE REFLECTED     TOTAL RADIANCE   INTEGRAL    TOTAL
  (CM-1) (MICRN)    (CM-1)   (MICRN)    (CM-1)   (MICRN)    (CM-1)   (MICRN)    (CM-1)   (MICRN)    (CM-1)   TRANS

   1402.    7.133  2.41E-07  4.74E-05  2.64E-06  5.19E-04  0.00E+00  0.00E+00  2.88E-06  5.66E-04  9.56E-03  0.89862
   1404.    7.123  2.37E-07  4.67E-05  2.63E-06  5.19E-04  0.00E+00  0.00E+00  2.87E-06  5.65E-04  9.56E-03  0.90068
   1406.    7.112  2.29E-07  4.53E-05  2.63E-06  5.20E-04  0.00E+00  0.00E+00  2.86E-06  5.65E-04  9.57E-03  0.90518
   1408.    7.102  2.24E-07  4.44E-05  2.62E-06  5.20E-04  0.00E+00  0.00E+00  2.85E-06  5.64E-04  9.58E-03  0.90799
   1410.    7.092  2.19E-07  4.36E-05  2.61E-06  5.20E-04  0.00E+00  0.00E+00  2.83E-06  5.63E-04  9.58E-03  0.91062
   1412.    7.082  2.16E-07  4.30E-05  2.60E-06  5.19E-04  0.00E+00  0.00E+00  2.82E-06  5.62E-04  9.59E-03  0.91216
   1414.    7.072  2.12E-07  4.24E-05  2.59E-06  5.19E-04  0.00E+00  0.00E+00  2.81E-06  5.61E-04  9.59E-03  0.91371
   1416.    7.062  2.11E-07  4.23E-05  2.58E-06  5.17E-04  0.00E+00  0.00E+00  2.79E-06  5.59E-04  9.60E-03  0.91361
   1418.    7.052  2.09E-07  4.21E-05  2.56E-06  5.16E-04  0.00E+00  0.00E+00  2.77E-06  5.58E-04  9.60E-03  0.91375
   1420.    7.042  2.09E-07  4.21E-05  2.55E-06  5.14E-04  0.00E+00  0.00E+00  2.76E-06  5.56E-04  9.61E-03  0.91319
   1422.    7.032  2.09E-07  4.22E-05  2.53E-06  5.12E-04  0.00E+00  0.00E+00  2.74E-06  5.54E-04  9.61E-03  0.91237
   1424.    7.022  2.10E-07  4.26E-05  2.51E-06  5.09E-04  0.00E+00  0.00E+00  2.72E-06  5.52E-04  9.62E-03  0.91068
   1426.    7.013  2.13E-07  4.33E-05  2.49E-06  5.06E-04  0.00E+00  0.00E+00  2.70E-06  5.50E-04  9.63E-03  0.90798
   1428.    7.003  2.17E-07  4.42E-05  2.47E-06  5.03E-04  0.00E+00  0.00E+00  2.68E-06  5.47E-04  9.63E-03  0.90436
   1430.    6.993  2.22E-07  4.53E-05  2.44E-06  4.99E-04  0.00E+00  0.00E+00  2.66E-06  5.44E-04  9.64E-03  0.90029
   1432.    6.983  2.30E-07  4.72E-05  2.41E-06  4.94E-04  0.00E+00  0.00E+00  2.64E-06  5.41E-04  9.64E-03  0.89349
   1434.    6.974  2.39E-07  4.92E-05  2.37E-06  4.88E-04  0.00E+00  0.00E+00  2.61E-06  5.37E-04  9.65E-03  0.88627
   1436.    6.964  2.45E-07  5.06E-05  2.35E-06  4.84E-04  0.00E+00  0.00E+00  2.59E-06  5.35E-04  9.65E-03  0.88125
   1438.    6.954  2.49E-07  5.14E-05  2.33E-06  4.81E-04  0.00E+00  0.00E+00  2.57E-06  5.32E-04  9.66E-03  0.87839
   1440.    6.944  2.52E-07  5.22E-05  2.31E-06  4.78E-04  0.00E+00  0.00E+00  2.56E-06  5.30E-04  9.66E-03  0.87556
   1442.    6.935  2.54E-07  5.29E-05  2.28E-06  4.75E-04  0.00E+00  0.00E+00  2.54E-06  5.28E-04  9.67E-03  0.87287
   1444.    6.925  2.57E-07  5.36E-05  2.26E-06  4.72E-04  0.00E+00  0.00E+00  2.52E-06  5.26E-04  9.67E-03  0.87016
   1446.    6.916  2.59E-07  5.42E-05  2.24E-06  4.69E-04  0.00E+00  0.00E+00  2.50E-06  5.24E-04  9.68E-03  0.86760
   1448.    6.906  2.61E-07  5.48E-05  2.23E-06  4.67E-04  0.00E+00  0.00E+00  2.49E-06  5.21E-04  9.68E-03  0.86518
   1450.    6.897  2.64E-07  5.54E-05  2.21E-06  4.64E-04  0.00E+00  0.00E+00  2.47E-06  5.19E-04  9.69E-03  0.86271
   1452.    6.887  2.66E-07  5.60E-05  2.19E-06  4.61E-04  0.00E+00  0.00E+00  2.45E-06  5.17E-04  9.69E-03  0.86020
   1454.    6.878  2.68E-07  5.67E-05  2.17E-06  4.58E-04  0.00E+00  0.00E+00  2.44E-06  5.15E-04  9.70E-03  0.85768
   1456.    6.868  2.71E-07  5.74E-05  2.15E-06  4.55E-04  0.00E+00  0.00E+00  2.42E-06  5.12E-04  9.70E-03  0.85446
   1458.    6.859  2.74E-07  5.83E-05  2.12E-06  4.52E-04  0.00E+00  0.00E+00  2.40E-06  5.10E-04  9.71E-03  0.85039
   1460.    6.849  2.77E-07  5.91E-05  2.10E-06  4.48E-04  0.00E+00  0.00E+00  2.38E-06  5.07E-04  9.71E-03  0.84659
   1462.    6.840  2.81E-07  6.00E-05  2.08E-06  4.44E-04  0.00E+00  0.00E+00  2.36E-06  5.04E-04  9.72E-03  0.84239
   1464.    6.831  2.84E-07  6.09E-05  2.06E-06  4.41E-04  0.00E+00  0.00E+00  2.34E-06  5.02E-04  9.72E-03  0.83815
   1466.    6.821  2.86E-07  6.16E-05  2.04E-06  4.38E-04  0.00E+00  0.00E+00  2.32E-06  4.99E-04  9.73E-03  0.83453
   1468.    6.812  2.88E-07  6.21E-05  2.02E-06  4.35E-04  0.00E+00  0.00E+00  2.30E-06  4.97E-04  9.73E-03  0.83153
   1470.    6.803  2.90E-07  6.26E-05  2.00E-06  4.32E-04  0.00E+00  0.00E+00  2.29E-06  4.94E-04  9.73E-03  0.82839
   1472.    6.793  2.90E-07  6.29E-05  1.98E-06  4.29E-04  0.00E+00  0.00E+00  2.27E-06  4.92E-04  9.74E-03  0.82632
   1474.    6.784  2.91E-07  6.33E-05  1.96E-06  4.27E-04  0.00E+00  0.00E+00  2.25E-06  4.90E-04  9.74E-03  0.82411
   1476.    6.775  2.93E-07  6.37E-05  1.95E-06  4.24E-04  0.00E+00  0.00E+00  2.24E-06  4.88E-04  9.75E-03  0.82159
   1478.    6.766  2.94E-07  6.43E-05  1.93E-06  4.21E-04  0.00E+00  0.00E+00  2.22E-06  4.85E-04  9.75E-03  0.81875
   1480.    6.757  2.96E-07  6.48E-05  1.91E-06  4.18E-04  0.00E+00  0.00E+00  2.21E-06  4.83E-04  9.76E-03  0.81582
   1482.    6.748  2.97E-07  6.53E-05  1.89E-06  4.15E-04  0.00E+00  0.00E+00  2.19E-06  4.80E-04  9.76E-03  0.81207
   1484.    6.739  2.98E-07  6.57E-05  1.87E-06  4.12E-04  0.00E+00  0.00E+00  2.17E-06  4.78E-04  9.77E-03  0.80871
   1486.    6.729  2.99E-07  6.60E-05  1.85E-06  4.09E-04  0.00E+00  0.00E+00  2.15E-06  4.75E-04  9.77E-03  0.80524
   1488.    6.720  3.00E-07  6.64E-05  1.83E-06  4.06E-04  0.00E+00  0.00E+00  2.13E-06  4.72E-04  9.77E-03  0.80175
   1490.    6.711  3.01E-07  6.68E-05  1.81E-06  4.03E-04  0.00E+00  0.00E+00  2.11E-06  4.69E-04  9.78E-03  0.79833
   1492.    6.702  3.03E-07  6.73E-05  1.80E-06  4.00E-04  0.00E+00  0.00E+00  2.10E-06  4.67E-04  9.78E-03  0.79536
   1494.    6.693  3.04E-07  6.79E-05  1.78E-06  3.97E-04  0.00E+00  0.00E+00  2.08E-06  4.65E-04  9.79E-03  0.79224
   1496.    6.684  3.06E-07  6.85E-05  1.76E-06  3.94E-04  0.00E+00  0.00E+00  2.07E-06  4.63E-04  9.79E-03  0.78940
   1498.    6.676  3.07E-07  6.90E-05  1.75E-06  3.92E-04  0.00E+00  0.00E+00  2.05E-06  4.61E-04  9.80E-03  0.78681
   1500.    6.667  3.09E-07  6.94E-05  1.73E-06  3.89E-04  0.00E+00  0.00E+00  2.04E-06  4.58E-04  9.80E-03  0.78418
  iv         1505
1                                             RADIANCE(WATTS/CM2-STER-XXX)
0  FREQ   WAVLEN    PATH THERMAL      SURFACE EMISSION    SURFACE REFLECTED     TOTAL RADIANCE   INTEGRAL    TOTAL
  (CM-1) (MICRN)    (CM-1)   (MICRN)    (CM-1)   (MICRN)    (CM-1)   (MICRN)    (CM-1)   (MICRN)    (CM-1)   TRANS

   1502.    6.658  3.08E-07  6.96E-05  1.72E-06  3.87E-04  0.00E+00  0.00E+00  2.02E-06  4.57E-04  9.80E-03  0.78251
   1504.    6.649  3.08E-07  6.97E-05  1.70E-06  3.85E-04  0.00E+00  0.00E+00  2.01E-06  4.55E-04  9.81E-03  0.78099
   1506.    6.640  3.08E-07  6.98E-05  1.69E-06  3.83E-04  0.00E+00  0.00E+00  2.00E-06  4.53E-04  9.81E-03  0.77928
   1508.    6.631  3.07E-07  6.99E-05  1.67E-06  3.81E-04  0.00E+00  0.00E+00  1.98E-06  4.51E-04  9.82E-03  0.77786
   1510.    6.623  3.07E-07  7.01E-05  1.66E-06  3.79E-04  0.00E+00  0.00E+00  1.97E-06  4.49E-04  9.82E-03  0.77615
   1512.    6.614  3.10E-07  7.08E-05  1.64E-06  3.75E-04  0.00E+00  0.00E+00  1.95E-06  4.46E-04  9.82E-03  0.77121
   1514.    6.605  3.13E-07  7.17E-05  1.62E-06  3.71E-04  0.00E+00  0.00E+00  1.93E-06  4.43E-04  9.83E-03  0.76577
   1516.    6.596  3.16E-07  7.25E-05  1.60E-06  3.67E-04  0.00E+00  0.00E+00  1.91E-06  4.40E-04  9.83E-03  0.76005
   1518.    6.588  3.19E-07  7.35E-05  1.57E-06  3.63E-04  0.00E+00  0.00E+00  1.89E-06  4.36E-04  9.83E-03  0.75383
   1520.    6.579  3.22E-07  7.44E-05  1.55E-06  3.59E-04  0.00E+00  0.00E+00  1.87E-06  4.33E-04  9.84E-03  0.74776
   1522.    6.570  3.25E-07  7.53E-05  1.53E-06  3.54E-04  0.00E+00  0.00E+00  1.86E-06  4.30E-04  9.84E-03  0.74135
   1524.    6.562  3.28E-07  7.62E-05  1.51E-06  3.50E-04  0.00E+00  0.00E+00  1.84E-06  4.26E-04  9.85E-03  0.73463
   1526.    6.553  3.31E-07  7.71E-05  1.49E-06  3.46E-04  0.00E+00  0.00E+00  1.82E-06  4.23E-04  9.85E-03  0.72857
   1528.    6.545  3.34E-07  7.81E-05  1.47E-06  3.42E-04  0.00E+00  0.00E+00  1.80E-06  4.20E-04  9.85E-03  0.72317
   1530.    6.536  3.38E-07  7.91E-05  1.44E-06  3.38E-04  0.00E+00  0.00E+00  1.78E-06  4.17E-04  9.86E-03  0.71701
   1532.    6.527  3.44E-07  8.07E-05  1.42E-06  3.33E-04  0.00E+00  0.00E+00  1.76E-06  4.14E-04  9.86E-03  0.70900
   1534.    6.519  3.50E-07  8.24E-05  1.39E-06  3.28E-04  0.00E+00  0.00E+00  1.74E-06  4.10E-04  9.86E-03  0.70022
   1536.    6.510  3.56E-07  8.40E-05  1.37E-06  3.23E-04  0.00E+00  0.00E+00  1.72E-06  4.07E-04  9.87E-03  0.69156
   1538.    6.502  3.62E-07  8.56E-05  1.34E-06  3.18E-04  0.00E+00  0.00E+00  1.70E-06  4.03E-04  9.87E-03  0.68302
   1540.    6.494  3.67E-07  8.70E-05  1.32E-06  3.13E-04  0.00E+00  0.00E+00  1.69E-06  4.00E-04  9.87E-03  0.67507
   1542.    6.485  3.68E-07  8.75E-05  1.30E-06  3.10E-04  0.00E+00  0.00E+00  1.67E-06  3.97E-04  9.88E-03  0.67098
   1544.    6.477  3.69E-07  8.79E-05  1.29E-06  3.07E-04  0.00E+00  0.00E+00  1.66E-06  3.95E-04  9.88E-03  0.66777
   1546.    6.468  3.69E-07  8.82E-05  1.27E-06  3.05E-04  0.00E+00  0.00E+00  1.64E-06  3.93E-04  9.88E-03  0.66445
   1548.    6.460  3.70E-07  8.86E-05  1.26E-06  3.02E-04  0.00E+00  0.00E+00  1.63E-06  3.91E-04  9.89E-03  0.66108
   1550.    6.452  3.70E-07  8.89E-05  1.25E-06  3.00E-04  0.00E+00  0.00E+00  1.62E-06  3.88E-04  9.89E-03  0.65785
   1552.    6.443  3.70E-07  8.90E-05  1.23E-06  2.97E-04  0.00E+00  0.00E+00  1.60E-06  3.86E-04  9.89E-03  0.65552
   1554.    6.435  3.69E-07  8.92E-05  1.22E-06  2.95E-04  0.00E+00  0.00E+00  1.59E-06  3.84E-04  9.90E-03  0.65280
   1556.    6.427  3.65E-07  8.84E-05  1.22E-06  2.95E-04  0.00E+00  0.00E+00  1.58E-06  3.83E-04  9.90E-03  0.65466
   1558.    6.418  3.57E-07  8.66E-05  1.22E-06  2.97E-04  0.00E+00  0.00E+00  1.58E-06  3.84E-04  9.90E-03  0.66155
   1560.    6.410  3.49E-07  8.50E-05  1.23E-06  2.99E-04  0.00E+00  0.00E+00  1.58E-06  3.84E-04  9.91E-03  0.66749
   1562.    6.402  3.43E-07  8.37E-05  1.23E-06  2.99E-04  0.00E+00  0.00E+00  1.57E-06  3.83E-04  9.91E-03  0.67184
   1564.    6.394  3.37E-07  8.24E-05  1.23E-06  3.00E-04  0.00E+00  0.00E+00  1.56E-06  3.83E-04  9.91E-03  0.67594
   1566.    6.386  3.31E-07  8.12E-05  1.23E-06  3.01E-04  0.00E+00  0.00E+00  1.56E-06  3.82E-04  9.92E-03  0.68042
   1568.    6.378  3.25E-07  7.98E-05  1.23E-06  3.02E-04  0.00E+00  0.00E+00  1.55E-06  3.82E-04  9.92E-03  0.68526
   1570.    6.369  3.19E-07  7.86E-05  1.23E-06  3.03E-04  0.00E+00  0.00E+00  1.55E-06  3.82E-04  9.92E-03  0.68995
   1572.    6.361  3.13E-07  7.74E-05  1.23E-06  3.04E-04  0.00E+00  0.00E+00  1.54E-06  3.81E-04  9.92E-03  0.69451
   1574.    6.353  3.08E-07  7.62E-05  1.23E-06  3.05E-04  0.00E+00  0.00E+00  1.54E-06  3.81E-04  9.93E-03  0.69905
   1576.    6.345  3.03E-07  7.53E-05  1.23E-06  3.05E-04  0.00E+00  0.00E+00  1.53E-06  3.81E-04  9.93E-03  0.70246
   1578.    6.337  2.99E-07  7.46E-05  1.23E-06  3.05E-04  0.00E+00  0.00E+00  1.53E-06  3.80E-04  9.93E-03  0.70482
   1580.    6.329  2.96E-07  7.38E-05  1.22E-06  3.05E-04  0.00E+00  0.00E+00  1.52E-06  3.79E-04  9.94E-03  0.70725
   1582.    6.321  2.92E-07  7.30E-05  1.22E-06  3.05E-04  0.00E+00  0.00E+00  1.51E-06  3.78E-04  9.94E-03  0.70981
   1584.    6.313  2.87E-07  7.21E-05  1.22E-06  3.06E-04  0.00E+00  0.00E+00  1.50E-06  3.78E-04  9.94E-03  0.71335
   1586.    6.305  2.83E-07  7.13E-05  1.21E-06  3.06E-04  0.00E+00  0.00E+00  1.50E-06  3.77E-04  9.95E-03  0.71613
   1588.    6.297  2.80E-07  7.06E-05  1.21E-06  3.05E-04  0.00E+00  0.00E+00  1.49E-06  3.76E-04  9.95E-03  0.71854
   1590.    6.289  2.77E-07  6.99E-05  1.21E-06  3.05E-04  0.00E+00  0.00E+00  1.48E-06  3.75E-04  9.95E-03  0.72063
   1592.    6.281  2.75E-07  6.96E-05  1.20E-06  3.04E-04  0.00E+00  0.00E+00  1.47E-06  3.74E-04  9.96E-03  0.72042
   1594.    6.274  2.73E-07  6.94E-05  1.19E-06  3.03E-04  0.00E+00  0.00E+00  1.46E-06  3.72E-04  9.96E-03  0.72022
   1596.    6.266  2.71E-07  6.91E-05  1.18E-06  3.02E-04  0.00E+00  0.00E+00  1.46E-06  3.71E-04  9.96E-03  0.72031
   1598.    6.258  2.69E-07  6.88E-05  1.18E-06  3.01E-04  0.00E+00  0.00E+00  1.45E-06  3.69E-04  9.96E-03  0.72008
   1600.    6.250  2.68E-07  6.85E-05  1.17E-06  2.99E-04  0.00E+00  0.00E+00  1.44E-06  3.68E-04  9.97E-03  0.71996
  iv         1605
1                                             RADIANCE(WATTS/CM2-STER-XXX)
0  FREQ   WAVLEN    PATH THERMAL      SURFACE EMISSION    SURFACE REFLECTED     TOTAL RADIANCE   INTEGRAL    TOTAL
  (CM-1) (MICRN)    (CM-1)   (MICRN)    (CM-1)   (MICRN)    (CM-1)   (MICRN)    (CM-1)   (MICRN)    (CM-1)   TRANS

   1602.    6.242  2.65E-07  6.81E-05  1.16E-06  2.98E-04  0.00E+00  0.00E+00  1.43E-06  3.67E-04  9.97E-03  0.72049
   1604.    6.234  2.63E-07  6.77E-05  1.16E-06  2.97E-04  0.00E+00  0.00E+00  1.42E-06  3.65E-04  9.97E-03  0.72049
   1606.    6.227  2.61E-07  6.72E-05  1.15E-06  2.97E-04  0.00E+00  0.00E+00  1.41E-06  3.64E-04  9.98E-03  0.72183
   1608.    6.219  2.58E-07  6.68E-05  1.14E-06  2.96E-04  0.00E+00  0.00E+00  1.40E-06  3.63E-04  9.98E-03  0.72250
   1610.    6.211  2.56E-07  6.63E-05  1.14E-06  2.95E-04  0.00E+00  0.00E+00  1.39E-06  3.61E-04  9.98E-03  0.72334
   1612.    6.203  2.53E-07  6.57E-05  1.13E-06  2.95E-04  0.00E+00  0.00E+00  1.39E-06  3.60E-04  9.98E-03  0.72520
   1614.    6.196  2.50E-07  6.51E-05  1.13E-06  2.94E-04  0.00E+00  0.00E+00  1.38E-06  3.59E-04  9.99E-03  0.72689
   1616.    6.188  2.47E-07  6.44E-05  1.13E-06  2.94E-04  0.00E+00  0.00E+00  1.37E-06  3.59E-04  9.99E-03  0.72903
   1618.    6.180  2.44E-07  6.37E-05  1.12E-06  2.94E-04  0.00E+00  0.00E+00  1.37E-06  3.58E-04  9.99E-03  0.73157
   1620.    6.173  2.40E-07  6.31E-05  1.12E-06  2.94E-04  0.00E+00  0.00E+00  1.36E-06  3.57E-04  9.99E-03  0.73396
   1622.    6.165  2.37E-07  6.23E-05  1.12E-06  2.94E-04  0.00E+00  0.00E+00  1.35E-06  3.56E-04  1.00E-02  0.73737
   1624.    6.158  2.33E-07  6.14E-05  1.12E-06  2.94E-04  0.00E+00  0.00E+00  1.35E-06  3.56E-04  1.00E-02  0.74066
   1626.    6.150  2.29E-07  6.06E-05  1.11E-06  2.95E-04  0.00E+00  0.00E+00  1.34E-06  3.55E-04  1.00E-02  0.74428
   1628.    6.143  2.25E-07  5.97E-05  1.11E-06  2.95E-04  0.00E+00  0.00E+00  1.34E-06  3.55E-04  1.00E-02  0.74828
   1630.    6.135  2.21E-07  5.88E-05  1.11E-06  2.95E-04  0.00E+00  0.00E+00  1.33E-06  3.54E-04  1.00E-02  0.75197
   1632.    6.127  2.17E-07  5.79E-05  1.11E-06  2.96E-04  0.00E+00  0.00E+00  1.33E-06  3.53E-04  1.00E-02  0.75553
   1634.    6.120  2.13E-07  5.69E-05  1.11E-06  2.96E-04  0.00E+00  0.00E+00  1.32E-06  3.53E-04  1.00E-02  0.75907
   1636.    6.112  2.09E-07  5.60E-05  1.11E-06  2.96E-04  0.00E+00  0.00E+00  1.31E-06  3.52E-04  1.00E-02  0.76220
   1638.    6.105  2.05E-07  5.50E-05  1.10E-06  2.96E-04  0.00E+00  0.00E+00  1.31E-06  3.51E-04  1.00E-02  0.76628
   1640.    6.098  2.01E-07  5.40E-05  1.10E-06  2.97E-04  0.00E+00  0.00E+00  1.30E-06  3.51E-04  1.00E-02  0.77006
   1642.    6.090  1.97E-07  5.30E-05  1.10E-06  2.97E-04  0.00E+00  0.00E+00  1.30E-06  3.50E-04  1.00E-02  0.77476
   1644.    6.083  1.93E-07  5.20E-05  1.10E-06  2.98E-04  0.00E+00  0.00E+00  1.30E-06  3.50E-04  1.00E-02  0.77961
   1646.    6.075  1.89E-07  5.11E-05  1.10E-06  2.99E-04  0.00E+00  0.00E+00  1.29E-06  3.50E-04  1.00E-02  0.78404
   1648.    6.068  1.85E-07  5.01E-05  1.10E-06  2.99E-04  0.00E+00  0.00E+00  1.29E-06  3.49E-04  1.00E-02  0.78911
   1650.    6.061  1.81E-07  4.92E-05  1.10E-06  3.00E-04  0.00E+00  0.00E+00  1.28E-06  3.49E-04  1.00E-02  0.79383
   1652.    6.053  1.77E-07  4.83E-05  1.10E-06  3.00E-04  0.00E+00  0.00E+00  1.28E-06  3.49E-04  1.00E-02  0.79846
   1654.    6.046  1.73E-07  4.74E-05  1.10E-06  3.01E-04  0.00E+00  0.00E+00  1.27E-06  3.48E-04  1.00E-02  0.80307
   1656.    6.039  1.69E-07  4.64E-05  1.10E-06  3.02E-04  0.00E+00  0.00E+00  1.27E-06  3.48E-04  1.00E-02  0.80761
   1658.    6.031  1.65E-07  4.54E-05  1.10E-06  3.02E-04  0.00E+00  0.00E+00  1.26E-06  3.47E-04  1.00E-02  0.81250
   1660.    6.024  1.61E-07  4.43E-05  1.10E-06  3.03E-04  0.00E+00  0.00E+00  1.26E-06  3.47E-04  1.00E-02  0.81737
   1662.    6.017  1.57E-07  4.33E-05  1.10E-06  3.03E-04  0.00E+00  0.00E+00  1.25E-06  3.47E-04  1.00E-02  0.82213
   1664.    6.010  1.53E-07  4.23E-05  1.10E-06  3.04E-04  0.00E+00  0.00E+00  1.25E-06  3.46E-04  1.01E-02  0.82688
   1666.    6.002  1.49E-07  4.13E-05  1.10E-06  3.04E-04  0.00E+00  0.00E+00  1.25E-06  3.46E-04  1.01E-02  0.83160
   1668.    5.995  1.45E-07  4.02E-05  1.10E-06  3.05E-04  0.00E+00  0.00E+00  1.24E-06  3.45E-04  1.01E-02  0.83645
   1670.    5.988  1.41E-07  3.92E-05  1.10E-06  3.05E-04  0.00E+00  0.00E+00  1.24E-06  3.45E-04  1.01E-02  0.84129
   1672.    5.981  1.37E-07  3.83E-05  1.09E-06  3.06E-04  0.00E+00  0.00E+00  1.23E-06  3.44E-04  1.01E-02  0.84561
   1674.    5.974  1.34E-07  3.75E-05  1.09E-06  3.06E-04  0.00E+00  0.00E+00  1.23E-06  3.44E-04  1.01E-02  0.84984
   1676.    5.967  1.30E-07  3.66E-05  1.09E-06  3.06E-04  0.00E+00  0.00E+00  1.22E-06  3.43E-04  1.01E-02  0.85396
   1678.    5.959  1.27E-07  3.58E-05  1.09E-06  3.07E-04  0.00E+00  0.00E+00  1.22E-06  3.42E-04  1.01E-02  0.85807
   1680.    5.952  1.24E-07  3.49E-05  1.09E-06  3.07E-04  0.00E+00  0.00E+00  1.21E-06  3.42E-04  1.01E-02  0.86222
   1682.    5.945  1.20E-07  3.41E-05  1.09E-06  3.07E-04  0.00E+00  0.00E+00  1.21E-06  3.41E-04  1.01E-02  0.86641
   1684.    5.938  1.17E-07  3.32E-05  1.08E-06  3.07E-04  0.00E+00  0.00E+00  1.20E-06  3.41E-04  1.01E-02  0.87060
   1686.    5.931  1.15E-07  3.27E-05  1.08E-06  3.07E-04  0.00E+00  0.00E+00  1.19E-06  3.40E-04  1.01E-02  0.87307
   1688.    5.924  1.13E-07  3.23E-05  1.07E-06  3.06E-04  0.00E+00  0.00E+00  1.19E-06  3.38E-04  1.01E-02  0.87398
   1690.    5.917  1.12E-07  3.20E-05  1.07E-06  3.05E-04  0.00E+00  0.00E+00  1.18E-06  3.37E-04  1.01E-02  0.87483
   1692.    5.910  1.11E-07  3.17E-05  1.06E-06  3.04E-04  0.00E+00  0.00E+00  1.17E-06  3.36E-04  1.01E-02  0.87568
   1694.    5.903  1.09E-07  3.14E-05  1.06E-06  3.03E-04  0.00E+00  0.00E+00  1.17E-06  3.35E-04  1.01E-02  0.87653
   1696.    5.896  1.08E-07  3.11E-05  1.05E-06  3.02E-04  0.00E+00  0.00E+00  1.16E-06  3.33E-04  1.01E-02  0.87718
   1698.    5.889  1.07E-07  3.09E-05  1.04E-06  3.01E-04  0.00E+00  0.00E+00  1.15E-06  3.32E-04  1.01E-02  0.87770
   1700.    5.882  1.06E-07  3.06E-05  1.04E-06  3.00E-04  0.00E+00  0.00E+00  1.14E-06  3.31E-04  1.01E-02  0.87824
  iv         1705
1                                             RADIANCE(WATTS/CM2-STER-XXX)
0  FREQ   WAVLEN    PATH THERMAL      SURFACE EMISSION    SURFACE REFLECTED     TOTAL RADIANCE   INTEGRAL    TOTAL
  (CM-1) (MICRN)    (CM-1)   (MICRN)    (CM-1)   (MICRN)    (CM-1)   (MICRN)    (CM-1)   (MICRN)    (CM-1)   TRANS

   1702.    5.875  1.05E-07  3.04E-05  1.03E-06  2.99E-04  0.00E+00  0.00E+00  1.14E-06  3.29E-04  1.01E-02  0.87907
   1704.    5.869  1.04E-07  3.01E-05  1.03E-06  2.98E-04  0.00E+00  0.00E+00  1.13E-06  3.28E-04  1.01E-02  0.87994
   1706.    5.862  1.03E-07  2.98E-05  1.02E-06  2.97E-04  0.00E+00  0.00E+00  1.12E-06  3.27E-04  1.01E-02  0.88085
   1708.    5.855  1.01E-07  2.96E-05  1.02E-06  2.96E-04  0.00E+00  0.00E+00  1.12E-06  3.26E-04  1.01E-02  0.88182
   1710.    5.848  1.00E-07  2.93E-05  1.01E-06  2.95E-04  0.00E+00  0.00E+00  1.11E-06  3.25E-04  1.01E-02  0.88276
   1712.    5.841  9.92E-08  2.91E-05  1.00E-06  2.95E-04  0.00E+00  0.00E+00  1.10E-06  3.24E-04  1.01E-02  0.88360
   1714.    5.834  9.81E-08  2.88E-05  9.99E-07  2.94E-04  0.00E+00  0.00E+00  1.10E-06  3.22E-04  1.01E-02  0.88441
   1716.    5.828  9.66E-08  2.85E-05  9.95E-07  2.93E-04  0.00E+00  0.00E+00  1.09E-06  3.21E-04  1.01E-02  0.88606
   1718.    5.821  9.47E-08  2.79E-05  9.91E-07  2.92E-04  0.00E+00  0.00E+00  1.09E-06  3.20E-04  1.01E-02  0.88853
   1720.    5.814  9.28E-08  2.74E-05  9.87E-07  2.92E-04  0.00E+00  0.00E+00  1.08E-06  3.20E-04  1.01E-02  0.89099
   1722.    5.807  9.09E-08  2.70E-05  9.84E-07  2.92E-04  0.00E+00  0.00E+00  1.07E-06  3.19E-04  1.01E-02  0.89341
   1724.    5.800  8.91E-08  2.65E-05  9.80E-07  2.91E-04  0.00E+00  0.00E+00  1.07E-06  3.18E-04  1.01E-02  0.89583
   1726.    5.794  8.67E-08  2.58E-05  9.77E-07  2.91E-04  0.00E+00  0.00E+00  1.06E-06  3.17E-04  1.01E-02  0.89915
   1728.    5.787  8.37E-08  2.50E-05  9.75E-07  2.91E-04  0.00E+00  0.00E+00  1.06E-06  3.16E-04  1.01E-02  0.90335
   1730.    5.780  8.09E-08  2.42E-05  9.73E-07  2.91E-04  0.00E+00  0.00E+00  1.05E-06  3.16E-04  1.01E-02  0.90741
   1732.    5.774  7.84E-08  2.35E-05  9.70E-07  2.91E-04  0.00E+00  0.00E+00  1.05E-06  3.15E-04  1.01E-02  0.91059
   1734.    5.767  7.61E-08  2.29E-05  9.67E-07  2.91E-04  0.00E+00  0.00E+00  1.04E-06  3.14E-04  1.01E-02  0.91361
   1736.    5.760  7.43E-08  2.24E-05  9.63E-07  2.90E-04  0.00E+00  0.00E+00  1.04E-06  3.13E-04  1.01E-02  0.91570
   1738.    5.754  7.32E-08  2.21E-05  9.58E-07  2.89E-04  0.00E+00  0.00E+00  1.03E-06  3.12E-04  1.01E-02  0.91684
   1740.    5.747  7.21E-08  2.18E-05  9.53E-07  2.89E-04  0.00E+00  0.00E+00  1.03E-06  3.10E-04  1.01E-02  0.91791
   1742.    5.741  7.13E-08  2.17E-05  9.47E-07  2.87E-04  0.00E+00  0.00E+00  1.02E-06  3.09E-04  1.01E-02  0.91851
   1744.    5.734  7.06E-08  2.15E-05  9.42E-07  2.86E-04  0.00E+00  0.00E+00  1.01E-06  3.08E-04  1.01E-02  0.91903
   1746.    5.727  7.00E-08  2.13E-05  9.36E-07  2.85E-04  0.00E+00  0.00E+00  1.01E-06  3.07E-04  1.01E-02  0.91939
   1748.    5.721  6.94E-08  2.12E-05  9.30E-07  2.84E-04  0.00E+00  0.00E+00  9.99E-07  3.05E-04  1.01E-02  0.91960
   1750.    5.714  6.89E-08  2.11E-05  9.24E-07  2.83E-04  0.00E+00  0.00E+00  9.93E-07  3.04E-04  1.01E-02  0.91979
   1752.    5.708  6.84E-08  2.10E-05  9.18E-07  2.82E-04  0.00E+00  0.00E+00  9.87E-07  3.03E-04  1.02E-02  0.91986
   1754.    5.701  6.80E-08  2.09E-05  9.12E-07  2.81E-04  0.00E+00  0.00E+00  9.80E-07  3.02E-04  1.02E-02  0.91991
   1756.    5.695  6.75E-08  2.08E-05  9.06E-07  2.79E-04  0.00E+00  0.00E+00  9.74E-07  3.00E-04  1.02E-02  0.91996
   1758.    5.688  6.71E-08  2.07E-05  9.00E-07  2.78E-04  0.00E+00  0.00E+00  9.67E-07  2.99E-04  1.02E-02  0.92002
   1760.    5.682  6.66E-08  2.06E-05  8.95E-07  2.77E-04  0.00E+00  0.00E+00  9.61E-07  2.98E-04  1.02E-02  0.92005
   1762.    5.675  6.62E-08  2.06E-05  8.89E-07  2.76E-04  0.00E+00  0.00E+00  9.55E-07  2.96E-04  1.02E-02  0.91996
   1764.    5.669  6.59E-08  2.05E-05  8.83E-07  2.75E-04  0.00E+00  0.00E+00  9.49E-07  2.95E-04  1.02E-02  0.91986
   1766.    5.663  6.55E-08  2.04E-05  8.77E-07  2.73E-04  0.00E+00  0.00E+00  9.42E-07  2.94E-04  1.02E-02  0.91975
   1768.    5.656  6.52E-08  2.04E-05  8.71E-07  2.72E-04  0.00E+00  0.00E+00  9.36E-07  2.93E-04  1.02E-02  0.91965
   1770.    5.650  6.48E-08  2.03E-05  8.65E-07  2.71E-04  0.00E+00  0.00E+00  9.30E-07  2.91E-04  1.02E-02  0.91954
   1772.    5.643  6.45E-08  2.02E-05  8.59E-07  2.70E-04  0.00E+00  0.00E+00  9.24E-07  2.90E-04  1.02E-02  0.91944
   1774.    5.637  6.41E-08  2.02E-05  8.54E-07  2.69E-04  0.00E+00  0.00E+00  9.18E-07  2.89E-04  1.02E-02  0.91933
   1776.    5.631  6.38E-08  2.01E-05  8.48E-07  2.67E-04  0.00E+00  0.00E+00  9.12E-07  2.88E-04  1.02E-02  0.91923
   1778.    5.624  6.34E-08  2.00E-05  8.42E-07  2.66E-04  0.00E+00  0.00E+00  9.06E-07  2.86E-04  1.02E-02  0.91913
   1780.    5.618  6.31E-08  2.00E-05  8.37E-07  2.65E-04  0.00E+00  0.00E+00  9.00E-07  2.85E-04  1.02E-02  0.91902
   1782.    5.612  6.27E-08  1.99E-05  8.31E-07  2.64E-04  0.00E+00  0.00E+00  8.94E-07  2.84E-04  1.02E-02  0.91892
   1784.    5.605  6.24E-08  1.99E-05  8.25E-07  2.63E-04  0.00E+00  0.00E+00  8.88E-07  2.83E-04  1.02E-02  0.91881
   1786.    5.599  6.20E-08  1.98E-05  8.20E-07  2.61E-04  0.00E+00  0.00E+00  8.82E-07  2.81E-04  1.02E-02  0.91871
   1788.    5.593  6.17E-08  1.97E-05  8.14E-07  2.60E-04  0.00E+00  0.00E+00  8.76E-07  2.80E-04  1.02E-02  0.91861
   1790.    5.587  6.14E-08  1.97E-05  8.09E-07  2.59E-04  0.00E+00  0.00E+00  8.70E-07  2.79E-04  1.02E-02  0.91851
   1792.    5.580  6.10E-08  1.96E-05  8.03E-07  2.58E-04  0.00E+00  0.00E+00  8.64E-07  2.78E-04  1.02E-02  0.91840
   1794.    5.574  6.07E-08  1.95E-05  7.98E-07  2.57E-04  0.00E+00  0.00E+00  8.59E-07  2.76E-04  1.02E-02  0.91830
   1796.    5.568  6.03E-08  1.95E-05  7.93E-07  2.56E-04  0.00E+00  0.00E+00  8.53E-07  2.75E-04  1.02E-02  0.91820
   1798.    5.562  6.00E-08  1.94E-05  7.87E-07  2.55E-04  0.00E+00  0.00E+00  8.47E-07  2.74E-04  1.02E-02  0.91809
   1800.    5.556  5.97E-08  1.93E-05  7.82E-07  2.53E-04  0.00E+00  0.00E+00  8.42E-07  2.73E-04  1.02E-02  0.91799
  iv         1805
1                                             RADIANCE(WATTS/CM2-STER-XXX)
0  FREQ   WAVLEN    PATH THERMAL      SURFACE EMISSION    SURFACE REFLECTED     TOTAL RADIANCE   INTEGRAL    TOTAL
  (CM-1) (MICRN)    (CM-1)   (MICRN)    (CM-1)   (MICRN)    (CM-1)   (MICRN)    (CM-1)   (MICRN)    (CM-1)   TRANS

   1802.    5.549  5.93E-08  1.93E-05  7.77E-07  2.52E-04  0.00E+00  0.00E+00  8.36E-07  2.71E-04  1.02E-02  0.91789
   1804.    5.543  5.90E-08  1.92E-05  7.71E-07  2.51E-04  0.00E+00  0.00E+00  8.30E-07  2.70E-04  1.02E-02  0.91779
   1806.    5.537  5.87E-08  1.91E-05  7.66E-07  2.50E-04  0.00E+00  0.00E+00  8.25E-07  2.69E-04  1.02E-02  0.91762
   1808.    5.531  5.85E-08  1.91E-05  7.61E-07  2.49E-04  0.00E+00  0.00E+00  8.19E-07  2.68E-04  1.02E-02  0.91738
   1810.    5.525  5.82E-08  1.91E-05  7.56E-07  2.48E-04  0.00E+00  0.00E+00  8.14E-07  2.67E-04  1.02E-02  0.91716
   1812.    5.519  5.80E-08  1.90E-05  7.50E-07  2.46E-04  0.00E+00  0.00E+00  8.08E-07  2.65E-04  1.02E-02  0.91675
   1814.    5.513  5.77E-08  1.90E-05  7.45E-07  2.45E-04  0.00E+00  0.00E+00  8.03E-07  2.64E-04  1.02E-02  0.91659
   1816.    5.507  5.75E-08  1.90E-05  7.40E-07  2.44E-04  0.00E+00  0.00E+00  7.97E-07  2.63E-04  1.02E-02  0.91623
   1818.    5.501  5.72E-08  1.89E-05  7.35E-07  2.43E-04  0.00E+00  0.00E+00  7.92E-07  2.62E-04  1.02E-02  0.91597
   1820.    5.495  5.70E-08  1.89E-05  7.30E-07  2.42E-04  0.00E+00  0.00E+00  7.87E-07  2.61E-04  1.02E-02  0.91570
   1822.    5.488  5.67E-08  1.88E-05  7.25E-07  2.41E-04  0.00E+00  0.00E+00  7.81E-07  2.59E-04  1.02E-02  0.91538
   1824.    5.482  5.64E-08  1.88E-05  7.20E-07  2.39E-04  0.00E+00  0.00E+00  7.76E-07  2.58E-04  1.02E-02  0.91516
   1826.    5.476  5.63E-08  1.88E-05  7.14E-07  2.38E-04  0.00E+00  0.00E+00  7.71E-07  2.57E-04  1.02E-02  0.91464
   1828.    5.470  5.57E-08  1.86E-05  7.10E-07  2.37E-04  0.00E+00  0.00E+00  7.66E-07  2.56E-04  1.02E-02  0.91508
   1830.    5.464  5.57E-08  1.86E-05  7.05E-07  2.36E-04  0.00E+00  0.00E+00  7.60E-07  2.55E-04  1.02E-02  0.91430
   1832.    5.459  5.53E-08  1.85E-05  7.00E-07  2.35E-04  0.00E+00  0.00E+00  7.55E-07  2.53E-04  1.02E-02  0.91447
   1834.    5.453  5.49E-08  1.85E-05  6.95E-07  2.34E-04  0.00E+00  0.00E+00  7.50E-07  2.52E-04  1.02E-02  0.91453
   1836.    5.447  5.47E-08  1.85E-05  6.90E-07  2.33E-04  0.00E+00  0.00E+00  7.45E-07  2.51E-04  1.02E-02  0.91404
   1838.    5.441  5.47E-08  1.85E-05  6.85E-07  2.31E-04  0.00E+00  0.00E+00  7.40E-07  2.50E-04  1.02E-02  0.91322
   1840.    5.435  5.43E-08  1.84E-05  6.81E-07  2.30E-04  0.00E+00  0.00E+00  7.35E-07  2.49E-04  1.02E-02  0.91348
   1842.    5.429  5.47E-08  1.86E-05  6.75E-07  2.29E-04  0.00E+00  0.00E+00  7.29E-07  2.47E-04  1.02E-02  0.91140
   1844.    5.423  5.54E-08  1.88E-05  6.68E-07  2.27E-04  0.00E+00  0.00E+00  7.23E-07  2.46E-04  1.02E-02  0.90864
   1846.    5.417  5.49E-08  1.87E-05  6.64E-07  2.26E-04  0.00E+00  0.00E+00  7.19E-07  2.45E-04  1.02E-02  0.90874
   1848.    5.411  5.68E-08  1.94E-05  6.55E-07  2.24E-04  0.00E+00  0.00E+00  7.11E-07  2.43E-04  1.02E-02  0.90250
   1850.    5.405  5.81E-08  1.99E-05  6.46E-07  2.21E-04  0.00E+00  0.00E+00  7.04E-07  2.41E-04  1.02E-02  0.89707
   1852.    5.400  5.71E-08  1.96E-05  6.43E-07  2.21E-04  0.00E+00  0.00E+00  7.00E-07  2.40E-04  1.02E-02  0.89882
   1854.    5.394  6.05E-08  2.08E-05  6.30E-07  2.17E-04  0.00E+00  0.00E+00  6.91E-07  2.38E-04  1.02E-02  0.88701
   1856.    5.388  6.18E-08  2.13E-05  6.22E-07  2.14E-04  0.00E+00  0.00E+00  6.84E-07  2.35E-04  1.02E-02  0.88062
   1858.    5.382  5.97E-08  2.06E-05  6.21E-07  2.14E-04  0.00E+00  0.00E+00  6.81E-07  2.35E-04  1.02E-02  0.88587
   1860.    5.376  6.34E-08  2.19E-05  6.07E-07  2.10E-04  0.00E+00  0.00E+00  6.70E-07  2.32E-04  1.02E-02  0.87160
   1862.    5.371  6.40E-08  2.22E-05  6.00E-07  2.08E-04  0.00E+00  0.00E+00  6.64E-07  2.30E-04  1.02E-02  0.86680
   1864.    5.365  6.11E-08  2.12E-05  6.02E-07  2.09E-04  0.00E+00  0.00E+00  6.63E-07  2.30E-04  1.02E-02  0.87568
   1866.    5.359  6.41E-08  2.23E-05  5.88E-07  2.05E-04  0.00E+00  0.00E+00  6.53E-07  2.27E-04  1.02E-02  0.86212
   1868.    5.353  6.26E-08  2.19E-05  5.86E-07  2.05E-04  0.00E+00  0.00E+00  6.49E-07  2.26E-04  1.02E-02  0.86460
   1870.    5.348  5.96E-08  2.08E-05  5.90E-07  2.06E-04  0.00E+00  0.00E+00  6.49E-07  2.27E-04  1.02E-02  0.87548
   1872.    5.342  6.15E-08  2.16E-05  5.78E-07  2.03E-04  0.00E+00  0.00E+00  6.40E-07  2.24E-04  1.02E-02  0.86490
   1874.    5.336  5.99E-08  2.10E-05  5.77E-07  2.03E-04  0.00E+00  0.00E+00  6.37E-07  2.24E-04  1.02E-02  0.86835
   1876.    5.330  6.03E-08  2.12E-05  5.72E-07  2.01E-04  0.00E+00  0.00E+00  6.33E-07  2.23E-04  1.02E-02  0.86730
   1878.    5.325  6.06E-08  2.14E-05  5.65E-07  1.99E-04  0.00E+00  0.00E+00  6.26E-07  2.21E-04  1.03E-02  0.86212
   1880.    5.319  6.86E-08  2.43E-05  5.41E-07  1.91E-04  0.00E+00  0.00E+00  6.09E-07  2.15E-04  1.03E-02  0.83036
   1882.    5.313  6.93E-08  2.45E-05  5.37E-07  1.90E-04  0.00E+00  0.00E+00  6.06E-07  2.15E-04  1.03E-02  0.83049
   1884.    5.308  6.76E-08  2.40E-05  5.35E-07  1.90E-04  0.00E+00  0.00E+00  6.03E-07  2.14E-04  1.03E-02  0.83327
   1886.    5.302  7.95E-08  2.83E-05  5.05E-07  1.80E-04  0.00E+00  0.00E+00  5.85E-07  2.08E-04  1.03E-02  0.79211
   1888.    5.297  7.63E-08  2.72E-05  5.09E-07  1.81E-04  0.00E+00  0.00E+00  5.85E-07  2.09E-04  1.03E-02  0.80363
   1890.    5.291  9.02E-08  3.22E-05  4.69E-07  1.68E-04  0.00E+00  0.00E+00  5.59E-07  2.00E-04  1.03E-02  0.74599
   1892.    5.285  1.00E-07  3.59E-05  4.35E-07  1.56E-04  0.00E+00  0.00E+00  5.35E-07  1.92E-04  1.03E-02  0.69581
   1894.    5.280  9.45E-08  3.39E-05  4.43E-07  1.59E-04  0.00E+00  0.00E+00  5.38E-07  1.93E-04  1.03E-02  0.71404
   1896.    5.274  1.24E-07  4.47E-05  3.42E-07  1.23E-04  0.00E+00  0.00E+00  4.66E-07  1.68E-04  1.03E-02  0.55448
   1898.    5.269  1.28E-07  4.61E-05  3.03E-07  1.09E-04  0.00E+00  0.00E+00  4.31E-07  1.55E-04  1.03E-02  0.49495
   1900.    5.263  1.18E-07  4.27E-05  3.47E-07  1.25E-04  0.00E+00  0.00E+00  4.65E-07  1.68E-04  1.03E-02  0.57049
  iv         1905
1                                             RADIANCE(WATTS/CM2-STER-XXX)
0  FREQ   WAVLEN    PATH THERMAL      SURFACE EMISSION    SURFACE REFLECTED     TOTAL RADIANCE   INTEGRAL    TOTAL
  (CM-1) (MICRN)    (CM-1)   (MICRN)    (CM-1)   (MICRN)    (CM-1)   (MICRN)    (CM-1)   (MICRN)    (CM-1)   TRANS

   1902.    5.258  1.30E-07  4.72E-05  2.36E-07  8.53E-05  0.00E+00  0.00E+00  3.66E-07  1.32E-04  1.03E-02  0.39036
   1904.    5.252  1.29E-07  4.69E-05  2.56E-07  9.28E-05  0.00E+00  0.00E+00  3.85E-07  1.40E-04  1.03E-02  0.42673
   1906.    5.247  1.31E-07  4.76E-05  2.75E-07  9.99E-05  0.00E+00  0.00E+00  4.06E-07  1.48E-04  1.03E-02  0.46173
   1908.    5.241  1.31E-07  4.76E-05  2.20E-07  8.03E-05  0.00E+00  0.00E+00  3.51E-07  1.28E-04  1.03E-02  0.37283
   1910.    5.236  1.28E-07  4.66E-05  2.18E-07  7.94E-05  0.00E+00  0.00E+00  3.45E-07  1.26E-04  1.03E-02  0.37017
   1912.    5.230  1.30E-07  4.74E-05  2.46E-07  8.98E-05  0.00E+00  0.00E+00  3.75E-07  1.37E-04  1.03E-02  0.42094
   1914.    5.225  1.25E-07  4.58E-05  2.05E-07  7.52E-05  0.00E+00  0.00E+00  3.30E-07  1.21E-04  1.03E-02  0.35453
   1916.    5.219  1.22E-07  4.48E-05  2.00E-07  7.33E-05  0.00E+00  0.00E+00  3.22E-07  1.18E-04  1.03E-02  0.34653
   1918.    5.214  1.39E-07  5.12E-05  1.22E-07  4.49E-05  0.00E+00  0.00E+00  2.61E-07  9.61E-05  1.03E-02  0.21341
   1920.    5.208  1.21E-07  4.45E-05  1.83E-07  6.74E-05  0.00E+00  0.00E+00  3.04E-07  1.12E-04  1.03E-02  0.32248
   1922.    5.203  1.13E-07  4.18E-05  2.25E-07  8.33E-05  0.00E+00  0.00E+00  3.38E-07  1.25E-04  1.03E-02  0.39949
   1924.    5.198  1.03E-07  3.80E-05  2.96E-07  1.10E-04  0.00E+00  0.00E+00  3.99E-07  1.48E-04  1.03E-02  0.52826
   1926.    5.192  9.67E-08  3.59E-05  2.83E-07  1.05E-04  0.00E+00  0.00E+00  3.80E-07  1.41E-04  1.03E-02  0.50900
   1928.    5.187  8.70E-08  3.24E-05  3.33E-07  1.24E-04  0.00E+00  0.00E+00  4.20E-07  1.56E-04  1.03E-02  0.60306
   1930.    5.181  7.36E-08  2.74E-05  4.01E-07  1.49E-04  0.00E+00  0.00E+00  4.74E-07  1.77E-04  1.03E-02  0.73062
   1932.    5.176  9.62E-08  3.59E-05  1.34E-07  4.99E-05  0.00E+00  0.00E+00  2.30E-07  8.58E-05  1.03E-02  0.24477
   1934.    5.171  9.70E-08  3.63E-05  5.34E-08  2.00E-05  0.00E+00  0.00E+00  1.50E-07  5.63E-05  1.03E-02  0.09890
   1936.    5.165  1.05E-07  3.92E-05  2.64E-07  9.91E-05  0.00E+00  0.00E+00  3.69E-07  1.38E-04  1.03E-02  0.49219
   1938.    5.160  6.81E-08  2.56E-05  3.99E-07  1.50E-04  0.00E+00  0.00E+00  4.67E-07  1.75E-04  1.03E-02  0.74681
   1940.    5.155  5.95E-08  2.24E-05  4.14E-07  1.56E-04  0.00E+00  0.00E+00  4.73E-07  1.78E-04  1.03E-02  0.78086
   1942.    5.149  5.00E-08  1.89E-05  4.46E-07  1.68E-04  0.00E+00  0.00E+00  4.96E-07  1.87E-04  1.03E-02  0.84639
   1944.    5.144  4.56E-08  1.72E-05  4.57E-07  1.73E-04  0.00E+00  0.00E+00  5.02E-07  1.90E-04  1.03E-02  0.87350
   1946.    5.139  4.28E-08  1.62E-05  4.63E-07  1.75E-04  0.00E+00  0.00E+00  5.05E-07  1.91E-04  1.03E-02  0.89087
   1948.    5.133  4.46E-08  1.69E-05  4.52E-07  1.71E-04  0.00E+00  0.00E+00  4.96E-07  1.88E-04  1.03E-02  0.87579
   1950.    5.128  4.89E-08  1.86E-05  4.34E-07  1.65E-04  0.00E+00  0.00E+00  4.83E-07  1.84E-04  1.03E-02  0.84700
   1952.    5.123  6.05E-08  2.31E-05  3.93E-07  1.50E-04  0.00E+00  0.00E+00  4.53E-07  1.73E-04  1.03E-02  0.77227
   1954.    5.118  5.46E-08  2.09E-05  4.07E-07  1.56E-04  0.00E+00  0.00E+00  4.62E-07  1.76E-04  1.03E-02  0.80635
   1956.    5.112  6.22E-08  2.38E-05  3.76E-07  1.44E-04  0.00E+00  0.00E+00  4.39E-07  1.68E-04  1.03E-02  0.75011
   1958.    5.107  5.81E-08  2.23E-05  3.91E-07  1.50E-04  0.00E+00  0.00E+00  4.49E-07  1.72E-04  1.03E-02  0.78556
   1960.    5.102  6.32E-08  2.43E-05  3.68E-07  1.41E-04  0.00E+00  0.00E+00  4.31E-07  1.66E-04  1.03E-02  0.74346
   1962.    5.097  5.65E-08  2.18E-05  3.90E-07  1.50E-04  0.00E+00  0.00E+00  4.46E-07  1.72E-04  1.03E-02  0.79302
   1964.    5.092  6.27E-08  2.42E-05  3.68E-07  1.42E-04  0.00E+00  0.00E+00  4.30E-07  1.66E-04  1.03E-02  0.75358
   1966.    5.086  5.51E-08  2.13E-05  3.90E-07  1.51E-04  0.00E+00  0.00E+00  4.45E-07  1.72E-04  1.03E-02  0.80497
   1968.    5.081  5.20E-08  2.01E-05  3.95E-07  1.53E-04  0.00E+00  0.00E+00  4.47E-07  1.73E-04  1.03E-02  0.82097
   1970.    5.076  5.56E-08  2.16E-05  3.82E-07  1.48E-04  0.00E+00  0.00E+00  4.38E-07  1.70E-04  1.03E-02  0.80015
   1972.    5.071  5.26E-08  2.05E-05  3.89E-07  1.51E-04  0.00E+00  0.00E+00  4.42E-07  1.72E-04  1.03E-02  0.82037
   1974.    5.066  4.54E-08  1.77E-05  4.05E-07  1.58E-04  0.00E+00  0.00E+00  4.50E-07  1.76E-04  1.03E-02  0.85946
   1976.    5.061  4.37E-08  1.71E-05  4.06E-07  1.59E-04  0.00E+00  0.00E+00  4.50E-07  1.76E-04  1.03E-02  0.86800
   1978.    5.056  4.38E-08  1.71E-05  4.03E-07  1.58E-04  0.00E+00  0.00E+00  4.46E-07  1.75E-04  1.03E-02  0.86639
   1980.    5.051  4.05E-08  1.59E-05  4.07E-07  1.59E-04  0.00E+00  0.00E+00  4.47E-07  1.75E-04  1.03E-02  0.88147
   1982.    5.045  3.95E-08  1.55E-05  4.06E-07  1.59E-04  0.00E+00  0.00E+00  4.45E-07  1.75E-04  1.03E-02  0.88550
   1984.    5.040  3.83E-08  1.51E-05  4.05E-07  1.59E-04  0.00E+00  0.00E+00  4.43E-07  1.74E-04  1.03E-02  0.88946
   1986.    5.035  3.71E-08  1.46E-05  4.04E-07  1.59E-04  0.00E+00  0.00E+00  4.41E-07  1.74E-04  1.03E-02  0.89418
   1988.    5.030  3.68E-08  1.45E-05  4.01E-07  1.59E-04  0.00E+00  0.00E+00  4.38E-07  1.73E-04  1.03E-02  0.89438
   1990.    5.025  3.68E-08  1.46E-05  3.98E-07  1.57E-04  0.00E+00  0.00E+00  4.35E-07  1.72E-04  1.03E-02  0.89216
   1992.    5.020  3.63E-08  1.44E-05  3.96E-07  1.57E-04  0.00E+00  0.00E+00  4.32E-07  1.71E-04  1.03E-02  0.89362
   1994.    5.015  3.57E-08  1.42E-05  3.94E-07  1.57E-04  0.00E+00  0.00E+00  4.29E-07  1.71E-04  1.03E-02  0.89569
   1996.    5.010  3.77E-08  1.50E-05  3.85E-07  1.54E-04  0.00E+00  0.00E+00  4.23E-07  1.69E-04  1.03E-02  0.88296
   1998.    5.005  3.80E-08  1.52E-05  3.81E-07  1.52E-04  0.00E+00  0.00E+00  4.19E-07  1.67E-04  1.03E-02  0.87908
   2000.    5.000  3.74E-08  1.49E-05  3.79E-07  1.52E-04  0.00E+00  0.00E+00  4.17E-07  1.67E-04  1.03E-02  0.88087
  iv         2005
1                                             RADIANCE(WATTS/CM2-STER-XXX)
0  FREQ   WAVLEN    PATH THERMAL      SURFACE EMISSION    SURFACE REFLECTED     TOTAL RADIANCE   INTEGRAL    TOTAL
  (CM-1) (MICRN)    (CM-1)   (MICRN)    (CM-1)   (MICRN)    (CM-1)   (MICRN)    (CM-1)   (MICRN)    (CM-1)   TRANS

   2002.    4.995  4.29E-08  1.72E-05  3.61E-07  1.45E-04  0.00E+00  0.00E+00  4.04E-07  1.62E-04  1.03E-02  0.84420
   2004.    4.990  4.37E-08  1.76E-05  3.54E-07  1.42E-04  0.00E+00  0.00E+00  3.98E-07  1.60E-04  1.03E-02  0.83525
   2006.    4.985  4.51E-08  1.82E-05  3.45E-07  1.39E-04  0.00E+00  0.00E+00  3.90E-07  1.57E-04  1.03E-02  0.81755
   2008.    4.980  4.33E-08  1.75E-05  3.47E-07  1.40E-04  0.00E+00  0.00E+00  3.90E-07  1.57E-04  1.03E-02  0.82917
   2010.    4.975  4.90E-08  1.98E-05  3.24E-07  1.31E-04  0.00E+00  0.00E+00  3.73E-07  1.51E-04  1.03E-02  0.77920
   2012.    4.970  4.64E-08  1.88E-05  3.29E-07  1.33E-04  0.00E+00  0.00E+00  3.75E-07  1.52E-04  1.03E-02  0.79769
   2014.    4.965  5.20E-08  2.11E-05  3.03E-07  1.23E-04  0.00E+00  0.00E+00  3.55E-07  1.44E-04  1.03E-02  0.73913
   2016.    4.960  4.97E-08  2.02E-05  3.11E-07  1.26E-04  0.00E+00  0.00E+00  3.61E-07  1.47E-04  1.03E-02  0.76408
   2018.    4.955  5.52E-08  2.25E-05  2.84E-07  1.16E-04  0.00E+00  0.00E+00  3.39E-07  1.38E-04  1.03E-02  0.70329
   2020.    4.950  5.66E-08  2.31E-05  2.73E-07  1.12E-04  0.00E+00  0.00E+00  3.30E-07  1.35E-04  1.03E-02  0.68137
   2022.    4.946  5.40E-08  2.21E-05  2.85E-07  1.17E-04  0.00E+00  0.00E+00  3.39E-07  1.39E-04  1.03E-02  0.71603
   2024.    4.941  5.57E-08  2.28E-05  2.78E-07  1.14E-04  0.00E+00  0.00E+00  3.34E-07  1.37E-04  1.03E-02  0.70293
   2026.    4.936  6.13E-08  2.51E-05  2.49E-07  1.02E-04  0.00E+00  0.00E+00  3.10E-07  1.27E-04  1.03E-02  0.63442
   2028.    4.931  6.45E-08  2.65E-05  2.39E-07  9.83E-05  0.00E+00  0.00E+00  3.04E-07  1.25E-04  1.03E-02  0.61325
   2030.    4.926  6.42E-08  2.64E-05  2.47E-07  1.02E-04  0.00E+00  0.00E+00  3.12E-07  1.28E-04  1.03E-02  0.63925
   2032.    4.921  7.24E-08  2.99E-05  2.21E-07  9.13E-05  0.00E+00  0.00E+00  2.94E-07  1.21E-04  1.03E-02  0.57585
   2034.    4.916  7.88E-08  3.26E-05  1.96E-07  8.12E-05  0.00E+00  0.00E+00  2.75E-07  1.14E-04  1.03E-02  0.51446
   2036.    4.912  7.30E-08  3.03E-05  1.60E-07  6.62E-05  0.00E+00  0.00E+00  2.33E-07  9.65E-05  1.03E-02  0.42148
   2038.    4.907  7.48E-08  3.11E-05  6.77E-08  2.81E-05  0.00E+00  0.00E+00  1.42E-07  5.92E-05  1.03E-02  0.18030
   2040.    4.902  8.88E-08  3.69E-05  1.13E-07  4.71E-05  0.00E+00  0.00E+00  2.02E-07  8.40E-05  1.03E-02  0.30262
   2042.    4.897  9.30E-08  3.88E-05  1.17E-07  4.90E-05  0.00E+00  0.00E+00  2.10E-07  8.77E-05  1.03E-02  0.31666
   2044.    4.892  9.03E-08  3.77E-05  7.33E-08  3.06E-05  0.00E+00  0.00E+00  1.64E-07  6.83E-05  1.03E-02  0.19925
   2046.    4.888  9.41E-08  3.94E-05  8.25E-08  3.45E-05  0.00E+00  0.00E+00  1.77E-07  7.39E-05  1.03E-02  0.22565
   2048.    4.883  7.91E-08  3.32E-05  5.61E-08  2.35E-05  0.00E+00  0.00E+00  1.35E-07  5.67E-05  1.03E-02  0.15428
   2050.    4.878  7.18E-08  3.02E-05  1.80E-08  7.56E-06  0.00E+00  0.00E+00  8.98E-08  3.77E-05  1.03E-02  0.04995
   2052.    4.873  6.41E-08  2.70E-05  1.23E-08  5.18E-06  0.00E+00  0.00E+00  7.64E-08  3.22E-05  1.03E-02  0.03439
   2054.    4.869  6.41E-08  2.71E-05  1.12E-08  4.72E-06  0.00E+00  0.00E+00  7.53E-08  3.18E-05  1.03E-02  0.03145
   2056.    4.864  7.01E-08  2.96E-05  1.00E-08  4.24E-06  0.00E+00  0.00E+00  8.01E-08  3.38E-05  1.03E-02  0.02841
   2058.    4.859  5.67E-08  2.40E-05  8.30E-09  3.51E-06  0.00E+00  0.00E+00  6.50E-08  2.75E-05  1.03E-02  0.02369
   2060.    4.854  5.31E-08  2.25E-05  6.32E-09  2.68E-06  0.00E+00  0.00E+00  5.94E-08  2.52E-05  1.03E-02  0.01818
   2062.    4.850  5.60E-08  2.38E-05  5.38E-09  2.29E-06  0.00E+00  0.00E+00  6.14E-08  2.61E-05  1.03E-02  0.01558
   2064.    4.845  4.82E-08  2.05E-05  5.12E-09  2.18E-06  0.00E+00  0.00E+00  5.33E-08  2.27E-05  1.03E-02  0.01495
   2066.    4.840  5.95E-08  2.54E-05  9.98E-09  4.26E-06  0.00E+00  0.00E+00  6.95E-08  2.97E-05  1.03E-02  0.02937
   2068.    4.836  5.80E-08  2.48E-05  1.57E-08  6.70E-06  0.00E+00  0.00E+00  7.37E-08  3.15E-05  1.03E-02  0.04633
   2070.    4.831  6.22E-08  2.67E-05  1.39E-08  5.97E-06  0.00E+00  0.00E+00  7.62E-08  3.26E-05  1.03E-02  0.04154
   2072.    4.826  6.21E-08  2.67E-05  2.34E-08  1.00E-05  0.00E+00  0.00E+00  8.55E-08  3.67E-05  1.03E-02  0.07028
   2074.    4.822  6.94E-08  2.99E-05  2.56E-08  1.10E-05  0.00E+00  0.00E+00  9.50E-08  4.09E-05  1.03E-02  0.07726
   2076.    4.817  3.89E-08  1.68E-05  4.58E-09  1.97E-06  0.00E+00  0.00E+00  4.35E-08  1.87E-05  1.03E-02  0.01391
   2078.    4.812  2.21E-08  9.56E-06  1.14E-11  4.93E-09  0.00E+00  0.00E+00  2.21E-08  9.56E-06  1.03E-02  0.00004
   2080.    4.808  5.31E-08  2.30E-05  8.11E-09  3.51E-06  0.00E+00  0.00E+00  6.12E-08  2.65E-05  1.03E-02  0.02510
   2082.    4.803  6.40E-08  2.77E-05  2.96E-08  1.29E-05  0.00E+00  0.00E+00  9.36E-08  4.06E-05  1.03E-02  0.09242
   2084.    4.798  6.85E-08  2.97E-05  4.67E-08  2.03E-05  0.00E+00  0.00E+00  1.15E-07  5.00E-05  1.03E-02  0.14628
   2086.    4.794  7.23E-08  3.14E-05  6.91E-08  3.01E-05  0.00E+00  0.00E+00  1.41E-07  6.15E-05  1.03E-02  0.21829
   2088.    4.789  7.17E-08  3.12E-05  9.32E-08  4.06E-05  0.00E+00  0.00E+00  1.65E-07  7.19E-05  1.03E-02  0.29654
   2090.    4.785  6.61E-08  2.89E-05  1.06E-07  4.65E-05  0.00E+00  0.00E+00  1.73E-07  7.54E-05  1.03E-02  0.34149
   2092.    4.780  6.17E-08  2.70E-05  9.29E-08  4.07E-05  0.00E+00  0.00E+00  1.55E-07  6.77E-05  1.03E-02  0.29935
   2094.    4.776  4.63E-08  2.03E-05  1.34E-08  5.87E-06  0.00E+00  0.00E+00  5.97E-08  2.62E-05  1.03E-02  0.04366
   2096.    4.771  7.39E-08  3.25E-05  1.17E-07  5.13E-05  0.00E+00  0.00E+00  1.91E-07  8.38E-05  1.03E-02  0.38254
   2098.    4.766  6.55E-08  2.88E-05  1.58E-07  6.97E-05  0.00E+00  0.00E+00  2.24E-07  9.85E-05  1.03E-02  0.52168
   2100.    4.762  6.74E-08  2.97E-05  1.38E-07  6.10E-05  0.00E+00  0.00E+00  2.06E-07  9.08E-05  1.03E-02  0.45957
  iv         2105
1                                             RADIANCE(WATTS/CM2-STER-XXX)
0  FREQ   WAVLEN    PATH THERMAL      SURFACE EMISSION    SURFACE REFLECTED     TOTAL RADIANCE   INTEGRAL    TOTAL
  (CM-1) (MICRN)    (CM-1)   (MICRN)    (CM-1)   (MICRN)    (CM-1)   (MICRN)    (CM-1)   (MICRN)    (CM-1)   TRANS

   2102.    4.757  6.84E-08  3.02E-05  1.29E-07  5.69E-05  0.00E+00  0.00E+00  1.97E-07  8.71E-05  1.03E-02  0.43075
   2104.    4.753  6.20E-08  2.74E-05  1.43E-07  6.33E-05  0.00E+00  0.00E+00  2.05E-07  9.08E-05  1.03E-02  0.48223
   2106.    4.748  6.78E-08  3.01E-05  1.15E-07  5.12E-05  0.00E+00  0.00E+00  1.83E-07  8.13E-05  1.03E-02  0.39122
   2108.    4.744  7.59E-08  3.37E-05  8.64E-08  3.84E-05  0.00E+00  0.00E+00  1.62E-07  7.21E-05  1.03E-02  0.29561
   2110.    4.739  6.56E-08  2.92E-05  1.26E-07  5.61E-05  0.00E+00  0.00E+00  1.92E-07  8.53E-05  1.03E-02  0.43415
   2112.    4.735  6.84E-08  3.05E-05  1.02E-07  4.57E-05  0.00E+00  0.00E+00  1.71E-07  7.62E-05  1.03E-02  0.35514
   2114.    4.730  6.95E-08  3.11E-05  1.14E-07  5.09E-05  0.00E+00  0.00E+00  1.83E-07  8.19E-05  1.03E-02  0.39766
   2116.    4.726  6.32E-08  2.83E-05  1.23E-07  5.49E-05  0.00E+00  0.00E+00  1.86E-07  8.32E-05  1.03E-02  0.43193
   2118.    4.721  5.88E-08  2.64E-05  1.49E-07  6.67E-05  0.00E+00  0.00E+00  2.07E-07  9.31E-05  1.03E-02  0.52700
   2120.    4.717  6.35E-08  2.85E-05  1.25E-07  5.60E-05  0.00E+00  0.00E+00  1.88E-07  8.45E-05  1.03E-02  0.44478
   2122.    4.713  5.43E-08  2.45E-05  1.60E-07  7.18E-05  0.00E+00  0.00E+00  2.14E-07  9.63E-05  1.03E-02  0.57378
   2124.    4.708  5.24E-08  2.37E-05  1.57E-07  7.07E-05  0.00E+00  0.00E+00  2.09E-07  9.44E-05  1.03E-02  0.56812
   2126.    4.704  4.70E-08  2.12E-05  1.78E-07  8.03E-05  0.00E+00  0.00E+00  2.25E-07  1.01E-04  1.03E-02  0.64785
   2128.    4.699  5.26E-08  2.38E-05  1.31E-07  5.93E-05  0.00E+00  0.00E+00  1.84E-07  8.31E-05  1.03E-02  0.48056
   2130.    4.695  4.55E-08  2.07E-05  5.28E-08  2.40E-05  0.00E+00  0.00E+00  9.83E-08  4.46E-05  1.03E-02  0.19616
   2132.    4.690  3.81E-08  1.73E-05  2.05E-07  9.30E-05  0.00E+00  0.00E+00  2.43E-07  1.10E-04  1.03E-02  0.76338
   2134.    4.686  3.55E-08  1.62E-05  2.04E-07  9.29E-05  0.00E+00  0.00E+00  2.39E-07  1.09E-04  1.03E-02  0.76612
   2136.    4.682  3.44E-08  1.57E-05  2.06E-07  9.38E-05  0.00E+00  0.00E+00  2.40E-07  1.10E-04  1.03E-02  0.77775
   2138.    4.677  3.56E-08  1.63E-05  2.00E-07  9.14E-05  0.00E+00  0.00E+00  2.35E-07  1.08E-04  1.03E-02  0.76177
   2140.    4.673  3.29E-08  1.51E-05  2.06E-07  9.45E-05  0.00E+00  0.00E+00  2.39E-07  1.10E-04  1.03E-02  0.79196
   2142.    4.669  3.25E-08  1.49E-05  2.05E-07  9.41E-05  0.00E+00  0.00E+00  2.38E-07  1.09E-04  1.03E-02  0.79319
   2144.    4.664  3.18E-08  1.46E-05  2.06E-07  9.47E-05  0.00E+00  0.00E+00  2.38E-07  1.09E-04  1.03E-02  0.80292
   2146.    4.660  3.00E-08  1.38E-05  2.08E-07  9.60E-05  0.00E+00  0.00E+00  2.38E-07  1.10E-04  1.03E-02  0.81790
   2148.    4.655  3.21E-08  1.48E-05  2.02E-07  9.32E-05  0.00E+00  0.00E+00  2.34E-07  1.08E-04  1.03E-02  0.79855
   2150.    4.651  3.00E-08  1.39E-05  2.04E-07  9.44E-05  0.00E+00  0.00E+00  2.34E-07  1.08E-04  1.03E-02  0.81271
   2152.    4.647  3.13E-08  1.45E-05  1.99E-07  9.22E-05  0.00E+00  0.00E+00  2.30E-07  1.07E-04  1.03E-02  0.79844
   2154.    4.643  3.16E-08  1.46E-05  1.96E-07  9.10E-05  0.00E+00  0.00E+00  2.28E-07  1.06E-04  1.03E-02  0.79239
   2156.    4.638  3.12E-08  1.45E-05  1.95E-07  9.05E-05  0.00E+00  0.00E+00  2.26E-07  1.05E-04  1.03E-02  0.79231
   2158.    4.634  3.19E-08  1.49E-05  1.91E-07  8.89E-05  0.00E+00  0.00E+00  2.23E-07  1.04E-04  1.03E-02  0.78278
   2160.    4.630  3.08E-08  1.44E-05  1.92E-07  8.96E-05  0.00E+00  0.00E+00  2.23E-07  1.04E-04  1.03E-02  0.79269
   2162.    4.625  3.12E-08  1.46E-05  1.89E-07  8.83E-05  0.00E+00  0.00E+00  2.20E-07  1.03E-04  1.03E-02  0.78611
   2164.    4.621  3.52E-08  1.65E-05  1.78E-07  8.35E-05  0.00E+00  0.00E+00  2.13E-07  1.00E-04  1.03E-02  0.74688
   2166.    4.617  3.98E-08  1.87E-05  1.65E-07  7.75E-05  0.00E+00  0.00E+00  2.05E-07  9.61E-05  1.03E-02  0.69697
   2168.    4.613  3.05E-08  1.43E-05  1.85E-07  8.69E-05  0.00E+00  0.00E+00  2.15E-07  1.01E-04  1.03E-02  0.78587
   2170.    4.608  3.05E-08  1.44E-05  1.83E-07  8.61E-05  0.00E+00  0.00E+00  2.13E-07  1.00E-04  1.03E-02  0.78279
   2172.    4.604  3.10E-08  1.46E-05  1.80E-07  8.48E-05  0.00E+00  0.00E+00  2.11E-07  9.94E-05  1.03E-02  0.77567
   2174.    4.600  3.10E-08  1.46E-05  1.78E-07  8.41E-05  0.00E+00  0.00E+00  2.09E-07  9.87E-05  1.03E-02  0.77329
   2176.    4.596  3.14E-08  1.49E-05  1.75E-07  8.30E-05  0.00E+00  0.00E+00  2.07E-07  9.78E-05  1.03E-02  0.76692
   2178.    4.591  3.18E-08  1.51E-05  1.72E-07  8.18E-05  0.00E+00  0.00E+00  2.04E-07  9.69E-05  1.03E-02  0.76048
   2180.    4.587  3.22E-08  1.53E-05  1.70E-07  8.06E-05  0.00E+00  0.00E+00  2.02E-07  9.59E-05  1.03E-02  0.75369
   2182.    4.583  3.29E-08  1.57E-05  1.66E-07  7.91E-05  0.00E+00  0.00E+00  1.99E-07  9.48E-05  1.03E-02  0.74377
   2184.    4.579  3.35E-08  1.60E-05  1.63E-07  7.77E-05  0.00E+00  0.00E+00  1.97E-07  9.37E-05  1.03E-02  0.73475
   2186.    4.575  3.45E-08  1.65E-05  1.59E-07  7.59E-05  0.00E+00  0.00E+00  1.93E-07  9.24E-05  1.03E-02  0.72164
   2188.    4.570  3.52E-08  1.68E-05  1.56E-07  7.45E-05  0.00E+00  0.00E+00  1.91E-07  9.13E-05  1.03E-02  0.71170
   2190.    4.566  3.65E-08  1.75E-05  1.51E-07  7.24E-05  0.00E+00  0.00E+00  1.87E-07  8.99E-05  1.03E-02  0.69536
   2192.    4.562  3.76E-08  1.81E-05  1.46E-07  7.03E-05  0.00E+00  0.00E+00  1.84E-07  8.84E-05  1.03E-02  0.67952
   2194.    4.558  3.89E-08  1.87E-05  1.42E-07  6.82E-05  0.00E+00  0.00E+00  1.81E-07  8.69E-05  1.03E-02  0.66276
   2196.    4.554  4.06E-08  1.96E-05  1.36E-07  6.56E-05  0.00E+00  0.00E+00  1.77E-07  8.52E-05  1.03E-02  0.64070
   2198.    4.550  4.23E-08  2.04E-05  1.31E-07  6.31E-05  0.00E+00  0.00E+00  1.73E-07  8.35E-05  1.03E-02  0.61941
   2200.    4.545  4.45E-08  2.15E-05  1.23E-07  5.97E-05  0.00E+00  0.00E+00  1.68E-07  8.13E-05  1.03E-02  0.59004
0INTEGRATED ABSORPTION FROM    2 TO 2200 CM-1 =    598.07 CM-1
 AVERAGE TRANSMITTANCE =0.7279

0INTEGRATED RADIANCE =  1.034E-02 WATTS CM-2 STER-1
 MINIMUM RADIANCE    =  9.532E-10 WATTS CM-2 STER-1 (CM-1)-1 AT        2.0 CM-1
 MAXIMUM RADIANCE    =  1.308E-05 WATTS CM-2 STER-1 (CM-1)-1 AT      506.0 CM-1
 BOUNDARY TEMPERATURE =     288.20 K
 BOUNDARY EMISSIVITY =       0.971
0 CARD 5 *****    0


