*****  MODTRAN3 Version 1.3  12/1/95  *****
0 CARD 1  *****T   1    3    1    0    0    0    0    0    0    0    0    0   -1   0.000  -1.00
 co2mx co2rat ch4rat h2orat t_o3rat s_o3rat   256.00000      0.77575755       0.0000000       0.0000000       0.0000000       0.0000000    
0 CARD 2  *****    2    0    0    0    0    0     0.000     0.000     0.000     0.000     0.000
0 CARD 3  *****    20.000     0.000   180.000     0.000     0.000     0.000    0
0 CARD 4  *****         2      2200         2         2
0 PROGRAM WILL COMPUTE RADIANCE                
0 ATMOSPHERIC MODEL
          TEMPERATURE =    1     TROPICAL MODEL      
          WATER VAPOR =    1     TROPICAL MODEL      
          OZONE       =    1     TROPICAL MODEL      
                      M4 =     1 M5 =     1 M6 =     1 MDEF =     1
0 AEROSOL MODEL
          REGIME                  AEROSOL TYPE             PROFILE                  SEASON

          BOUNDARY LAYER (0-2 KM) RURAL                      5.0 KM VIS AT SEA LEVEL
          TROPOSPHERE  (2-10KM)   TROPOSPHERIC             TROPOSPHERIC             SPRING-SUMMER       
          STRATOSPHERE (10-30KM)  BACKGROUND STRATO        BACKGROUND STRATO        SPRING-SUMMER       
          UPPER ATMOS (30-100KM)  METEORIC DUST            NORMAL              
0 SLANT PATH TO SPACE
          H1    =     20.000 KM
          HMIN  =      0.000 KM
          ANGLE =    180.000 DEG
0 FREQUENCY RANGE
             IV1 =         2 CM-1  (   5000.00 MICROMETERS)
             IV2 =      2200 CM-1  (      4.55 MICROMETERS)
             IDV =         2 CM-1
           IFWHM =         2 CM-1
1
  ATMOSPHERIC PROFILES

   I     Z       P       T        N2       CNTMSLF MOL SCAT     N-1     O3 (UV)  O2 (UV)
        (KM)    (MB)    (K)            (MOL/CM2 KM)   (-)       (-)  (ATM CM/KM) (ATM CM/KM)

   1     0.00 1013.000  299.7  7.622E-01 0.000E+00 9.112E-01 2.621E-04 0.000E+00 3.342E+04
   2     1.00  904.000  293.7  6.321E-01 0.000E+00 8.298E-01 2.386E-04 0.000E+00 2.927E+04
   3     2.00  805.000  287.7  5.223E-01 0.000E+00 7.543E-01 2.169E-04 0.000E+00 2.562E+04
   4     3.00  715.000  283.7  4.238E-01 0.000E+00 6.794E-01 1.954E-04 0.000E+00 2.219E+04
   5     4.00  633.000  277.0  3.484E-01 0.000E+00 6.160E-01 1.772E-04 0.000E+00 1.945E+04
   6     5.00  559.000  270.3  2.853E-01 0.000E+00 5.575E-01 1.603E-04 0.000E+00 1.703E+04
   7     6.00  492.000  263.6  2.324E-01 0.000E+00 5.032E-01 1.447E-04 0.000E+00 1.490E+04
   8     7.00  432.000  257.0  1.885E-01 0.000E+00 4.531E-01 1.303E-04 0.000E+00 1.302E+04
   9     8.00  378.000  250.3  1.522E-01 0.000E+00 4.071E-01 1.171E-04 0.000E+00 1.138E+04
  10     9.00  329.000  243.6  1.217E-01 0.000E+00 3.641E-01 1.047E-04 0.000E+00 9.902E+03
  11    10.00  286.000  237.0  9.716E-02 0.000E+00 3.253E-01 9.356E-05 0.000E+00 8.629E+03
  12    11.00  247.000  230.1  7.688E-02 0.000E+00 2.894E-01 8.322E-05 0.000E+00 7.496E+03
  13    12.00  213.000  223.6  6.054E-02 0.000E+00 2.568E-01 7.386E-05 0.000E+00 6.507E+03
  14    13.00  182.000  217.0  4.693E-02 0.000E+00 2.261E-01 6.503E-05 0.000E+00 5.608E+03
  15    14.00  156.000  210.3  3.671E-02 0.000E+00 2.000E-01 5.751E-05 0.000E+00 4.870E+03
  16    15.00  132.000  203.7  2.802E-02 0.000E+00 1.747E-01 5.024E-05 0.000E+00 4.178E+03
  17    16.00  111.000  197.0  2.118E-02 0.000E+00 1.519E-01 4.368E-05 0.000E+00 3.572E+03
  18    17.00   93.700  194.8  1.544E-02 0.000E+00 1.297E-01 3.729E-05 0.000E+00 3.000E+03
  19    18.00   78.900  198.8  1.051E-02 0.000E+00 1.070E-01 3.077E-05 0.000E+00 2.433E+03
  20    19.00   66.600  202.7  7.202E-03 0.000E+00 8.857E-02 2.547E-05 0.000E+00 1.986E+03
  21    20.00   56.500  206.7  4.985E-03 0.000E+00 7.369E-02 2.119E-05 0.000E+00 1.633E+03
  22    21.00   48.000  210.7  3.463E-03 0.000E+00 6.141E-02 1.766E-05 0.000E+00 1.348E+03
  23    22.00   40.900  214.6  2.423E-03 0.000E+00 5.138E-02 1.478E-05 0.000E+00 1.119E+03
  24    23.00   35.000  217.0  1.736E-03 0.000E+00 4.348E-02 1.250E-05 0.000E+00 9.409E+02
  25    24.00   30.000  219.2  1.250E-03 0.000E+00 3.689E-02 1.061E-05 0.000E+00 7.942E+02
  26    25.00   25.700  221.4  8.990E-04 0.000E+00 3.129E-02 9.000E-06 0.000E+00 6.705E+02
  27    30.00   12.200  232.3  1.840E-04 0.000E+00 1.416E-02 4.072E-06 0.000E+00 2.992E+02
  28    35.00    6.000  243.1  4.064E-05 0.000E+00 6.654E-03 1.914E-06 0.000E+00 1.397E+02
  29    40.00    3.050  254.0  9.620E-06 0.000E+00 3.237E-03 9.310E-07 0.000E+00 6.779E+01
  30    45.00    1.590  264.8  2.405E-06 0.000E+00 1.619E-03 4.655E-07 0.000E+00 3.385E+01
  31    50.00    0.854  270.2  6.665E-07 0.000E+00 8.520E-04 2.450E-07 0.000E+00 1.781E+01
  32    70.00    0.058  218.9  4.684E-09 0.000E+00 7.143E-05 2.054E-08 0.000E+00 1.492E+00
  33   100.00    0.000  190.7  1.532E-13 0.000E+00 4.085E-07 1.175E-10 0.000E+00 6.532E-03
1
  ATMOSPHERIC PROFILES

   I     Z       P       T      CNTMFRN     HNO3    AEROSOL 1 AEROSOL 2 AEROSOL 3 AEROSOL 4 AER1*RH   CIRRUS         RH
        (KM)    (MB)    (K)   MOL/CM2 KM ATM CM/KM   (-)       (-)       (-)       (-)       (-)       (-)      (PERCNT)

   1     0.00 1013.000  299.7  0.000E+00 0.000E+00 7.700E-01 0.000E+00 0.000E+00 0.000E+00 3.546E+00 0.000E+00 0.000E+00
   2     1.00  904.000  293.7  0.000E+00 0.000E+00 7.700E-01 0.000E+00 0.000E+00 0.000E+00 3.546E+00 0.000E+00 0.000E+00
   3     2.00  805.000  287.7  0.000E+00 0.000E+00 6.210E-02 0.000E+00 0.000E+00 0.000E+00 2.860E-01 0.000E+00 0.000E+00
   4     3.00  715.000  283.7  0.000E+00 0.000E+00 0.000E+00 3.460E-02 0.000E+00 0.000E+00 0.000E+00 0.000E+00 0.000E+00
   5     4.00  633.000  277.0  0.000E+00 0.000E+00 0.000E+00 1.850E-02 0.000E+00 0.000E+00 0.000E+00 0.000E+00 0.000E+00
   6     5.00  559.000  270.3  0.000E+00 0.000E+00 0.000E+00 9.310E-03 0.000E+00 0.000E+00 0.000E+00 0.000E+00 0.000E+00
   7     6.00  492.000  263.6  0.000E+00 0.000E+00 0.000E+00 7.710E-03 0.000E+00 0.000E+00 0.000E+00 0.000E+00 0.000E+00
   8     7.00  432.000  257.0  0.000E+00 0.000E+00 0.000E+00 6.230E-03 0.000E+00 0.000E+00 0.000E+00 0.000E+00 0.000E+00
   9     8.00  378.000  250.3  0.000E+00 0.000E+00 0.000E+00 3.370E-03 0.000E+00 0.000E+00 0.000E+00 0.000E+00 0.000E+00
  10     9.00  329.000  243.6  0.000E+00 0.000E+00 0.000E+00 1.820E-03 0.000E+00 0.000E+00 0.000E+00 0.000E+00 0.000E+00
  11    10.00  286.000  237.0  0.000E+00 0.000E+00 0.000E+00 1.140E-03 0.000E+00 0.000E+00 0.000E+00 0.000E+00 0.000E+00
  12    11.00  247.000  230.1  0.000E+00 0.000E+00 0.000E+00 0.000E+00 7.990E-04 0.000E+00 0.000E+00 0.000E+00 0.000E+00
  13    12.00  213.000  223.6  0.000E+00 0.000E+00 0.000E+00 0.000E+00 6.410E-04 0.000E+00 0.000E+00 0.000E+00 0.000E+00
  14    13.00  182.000  217.0  0.000E+00 0.000E+00 0.000E+00 0.000E+00 5.170E-04 0.000E+00 0.000E+00 0.000E+00 0.000E+00
  15    14.00  156.000  210.3  0.000E+00 0.000E+00 0.000E+00 0.000E+00 4.420E-04 0.000E+00 0.000E+00 0.000E+00 0.000E+00
  16    15.00  132.000  203.7  0.000E+00 0.000E+00 0.000E+00 0.000E+00 3.950E-04 0.000E+00 0.000E+00 0.000E+00 0.000E+00
  17    16.00  111.000  197.0  0.000E+00 0.000E+00 0.000E+00 0.000E+00 3.820E-04 0.000E+00 0.000E+00 0.000E+00 0.000E+00
  18    17.00   93.700  194.8  0.000E+00 0.000E+00 0.000E+00 0.000E+00 4.250E-04 0.000E+00 0.000E+00 0.000E+00 0.000E+00
  19    18.00   78.900  198.8  0.000E+00 0.000E+00 0.000E+00 0.000E+00 5.200E-04 0.000E+00 0.000E+00 0.000E+00 0.000E+00
  20    19.00   66.600  202.7  0.000E+00 0.000E+00 0.000E+00 0.000E+00 5.810E-04 0.000E+00 0.000E+00 0.000E+00 0.000E+00
  21    20.00   56.500  206.7  0.000E+00 0.000E+00 0.000E+00 0.000E+00 5.890E-04 0.000E+00 0.000E+00 0.000E+00 0.000E+00
  22    21.00   48.000  210.7  0.000E+00 0.000E+00 0.000E+00 0.000E+00 5.020E-04 0.000E+00 0.000E+00 0.000E+00 0.000E+00
  23    22.00   40.900  214.6  0.000E+00 0.000E+00 0.000E+00 0.000E+00 4.200E-04 0.000E+00 0.000E+00 0.000E+00 0.000E+00
  24    23.00   35.000  217.0  0.000E+00 0.000E+00 0.000E+00 0.000E+00 3.000E-04 0.000E+00 0.000E+00 0.000E+00 0.000E+00
  25    24.00   30.000  219.2  0.000E+00 0.000E+00 0.000E+00 0.000E+00 1.980E-04 0.000E+00 0.000E+00 0.000E+00 0.000E+00
  26    25.00   25.700  221.4  0.000E+00 0.000E+00 0.000E+00 0.000E+00 1.310E-04 0.000E+00 0.000E+00 0.000E+00 0.000E+00
  27    30.00   12.200  232.3  0.000E+00 0.000E+00 0.000E+00 0.000E+00 3.320E-05 0.000E+00 0.000E+00 0.000E+00 0.000E+00
  28    35.00    6.000  243.1  0.000E+00 0.000E+00 0.000E+00 0.000E+00 0.000E+00 1.640E-05 0.000E+00 0.000E+00 0.000E+00
  29    40.00    3.050  254.0  0.000E+00 0.000E+00 0.000E+00 0.000E+00 0.000E+00 7.990E-06 0.000E+00 0.000E+00 0.000E+00
  30    45.00    1.590  264.8  0.000E+00 0.000E+00 0.000E+00 0.000E+00 0.000E+00 4.010E-06 0.000E+00 0.000E+00 0.000E+00
  31    50.00    0.854  270.2  0.000E+00 0.000E+00 0.000E+00 0.000E+00 0.000E+00 2.100E-06 0.000E+00 0.000E+00 0.000E+00
  32    70.00    0.058  218.9  0.000E+00 0.000E+00 0.000E+00 0.000E+00 0.000E+00 1.600E-07 0.000E+00 0.000E+00 0.000E+00
  33   100.00    0.000  190.7  0.000E+00 0.000E+00 0.000E+00 0.000E+00 0.000E+00 9.310E-10 0.000E+00 0.000E+00 0.000E+00
1
  ATMOSPHERIC PROFILES

   I      Z       P       T      H2O      O3       CO2      CO       CH4      N2O      O2       NH3      NO       NO2      SO2
         (KM)    (MB)    (K)  (                                    MBAR                                                       )
   1     0.00 1013.000  299.7  0.00E+00 0.00E+00 2.56E+02 0.00E+00 0.00E+00 0.00E+00 2.09E+05 0.00E+00 0.00E+00 0.00E+00 0.00E+00
   2     1.00  904.000  293.7  0.00E+00 0.00E+00 2.56E+02 0.00E+00 0.00E+00 0.00E+00 2.09E+05 0.00E+00 0.00E+00 0.00E+00 0.00E+00
   3     2.00  805.000  287.7  0.00E+00 0.00E+00 2.56E+02 0.00E+00 0.00E+00 0.00E+00 2.09E+05 0.00E+00 0.00E+00 0.00E+00 0.00E+00
   4     3.00  715.000  283.7  0.00E+00 0.00E+00 2.56E+02 0.00E+00 0.00E+00 0.00E+00 2.09E+05 0.00E+00 0.00E+00 0.00E+00 0.00E+00
   5     4.00  633.000  277.0  0.00E+00 0.00E+00 2.56E+02 0.00E+00 0.00E+00 0.00E+00 2.09E+05 0.00E+00 0.00E+00 0.00E+00 0.00E+00
   6     5.00  559.000  270.3  0.00E+00 0.00E+00 2.56E+02 0.00E+00 0.00E+00 0.00E+00 2.09E+05 0.00E+00 0.00E+00 0.00E+00 0.00E+00
   7     6.00  492.000  263.6  0.00E+00 0.00E+00 2.56E+02 0.00E+00 0.00E+00 0.00E+00 2.09E+05 0.00E+00 0.00E+00 0.00E+00 0.00E+00
   8     7.00  432.000  257.0  0.00E+00 0.00E+00 2.56E+02 0.00E+00 0.00E+00 0.00E+00 2.09E+05 0.00E+00 0.00E+00 0.00E+00 0.00E+00
   9     8.00  378.000  250.3  0.00E+00 0.00E+00 2.56E+02 0.00E+00 0.00E+00 0.00E+00 2.09E+05 0.00E+00 0.00E+00 0.00E+00 0.00E+00
  10     9.00  329.000  243.6  0.00E+00 0.00E+00 2.56E+02 0.00E+00 0.00E+00 0.00E+00 2.09E+05 0.00E+00 0.00E+00 0.00E+00 0.00E+00
  11    10.00  286.000  237.0  0.00E+00 0.00E+00 2.56E+02 0.00E+00 0.00E+00 0.00E+00 2.09E+05 0.00E+00 0.00E+00 0.00E+00 0.00E+00
  12    11.00  247.000  230.1  0.00E+00 0.00E+00 2.56E+02 0.00E+00 0.00E+00 0.00E+00 2.09E+05 0.00E+00 0.00E+00 0.00E+00 0.00E+00
  13    12.00  213.000  223.6  0.00E+00 0.00E+00 2.56E+02 0.00E+00 0.00E+00 0.00E+00 2.09E+05 0.00E+00 0.00E+00 0.00E+00 0.00E+00
  14    13.00  182.000  217.0  0.00E+00 0.00E+00 2.56E+02 0.00E+00 0.00E+00 0.00E+00 2.09E+05 0.00E+00 0.00E+00 0.00E+00 0.00E+00
  15    14.00  156.000  210.3  0.00E+00 0.00E+00 2.56E+02 0.00E+00 0.00E+00 0.00E+00 2.09E+05 0.00E+00 0.00E+00 0.00E+00 0.00E+00
  16    15.00  132.000  203.7  0.00E+00 0.00E+00 2.56E+02 0.00E+00 0.00E+00 0.00E+00 2.09E+05 0.00E+00 0.00E+00 0.00E+00 0.00E+00
  17    16.00  111.000  197.0  0.00E+00 0.00E+00 2.56E+02 0.00E+00 0.00E+00 0.00E+00 2.09E+05 0.00E+00 0.00E+00 0.00E+00 0.00E+00
  18    17.00   93.700  194.8  0.00E+00 0.00E+00 2.56E+02 0.00E+00 0.00E+00 0.00E+00 2.09E+05 0.00E+00 0.00E+00 0.00E+00 0.00E+00
  19    18.00   78.900  198.8  0.00E+00 0.00E+00 2.56E+02 0.00E+00 0.00E+00 0.00E+00 2.09E+05 0.00E+00 0.00E+00 0.00E+00 0.00E+00
  20    19.00   66.600  202.7  0.00E+00 0.00E+00 2.56E+02 0.00E+00 0.00E+00 0.00E+00 2.09E+05 0.00E+00 0.00E+00 0.00E+00 0.00E+00
  21    20.00   56.500  206.7  0.00E+00 0.00E+00 2.56E+02 0.00E+00 0.00E+00 0.00E+00 2.09E+05 0.00E+00 0.00E+00 0.00E+00 0.00E+00
  22    21.00   48.000  210.7  0.00E+00 0.00E+00 2.56E+02 0.00E+00 0.00E+00 0.00E+00 2.09E+05 0.00E+00 0.00E+00 0.00E+00 0.00E+00
  23    22.00   40.900  214.6  0.00E+00 0.00E+00 2.56E+02 0.00E+00 0.00E+00 0.00E+00 2.09E+05 0.00E+00 0.00E+00 0.00E+00 0.00E+00
  24    23.00   35.000  217.0  0.00E+00 0.00E+00 2.56E+02 0.00E+00 0.00E+00 0.00E+00 2.09E+05 0.00E+00 0.00E+00 0.00E+00 0.00E+00
  25    24.00   30.000  219.2  0.00E+00 0.00E+00 2.56E+02 0.00E+00 0.00E+00 0.00E+00 2.09E+05 0.00E+00 0.00E+00 0.00E+00 0.00E+00
  26    25.00   25.700  221.4  0.00E+00 0.00E+00 2.56E+02 0.00E+00 0.00E+00 0.00E+00 2.09E+05 0.00E+00 0.00E+00 0.00E+00 0.00E+00
  27    30.00   12.200  232.3  0.00E+00 0.00E+00 2.56E+02 0.00E+00 0.00E+00 0.00E+00 2.09E+05 0.00E+00 0.00E+00 0.00E+00 0.00E+00
  28    35.00    6.000  243.1  0.00E+00 0.00E+00 2.56E+02 0.00E+00 0.00E+00 0.00E+00 2.09E+05 0.00E+00 0.00E+00 0.00E+00 0.00E+00
  29    40.00    3.050  254.0  0.00E+00 0.00E+00 2.56E+02 0.00E+00 0.00E+00 0.00E+00 2.09E+05 0.00E+00 0.00E+00 0.00E+00 0.00E+00
  30    45.00    1.590  264.8  0.00E+00 0.00E+00 2.56E+02 0.00E+00 0.00E+00 0.00E+00 2.09E+05 0.00E+00 0.00E+00 0.00E+00 0.00E+00
  31    50.00    0.854  270.2  0.00E+00 0.00E+00 2.56E+02 0.00E+00 0.00E+00 0.00E+00 2.09E+05 0.00E+00 0.00E+00 0.00E+00 0.00E+00
  32    70.00    0.058  218.9  0.00E+00 0.00E+00 2.56E+02 0.00E+00 0.00E+00 0.00E+00 2.09E+05 0.00E+00 0.00E+00 0.00E+00 0.00E+00
  33   100.00    0.000  190.7  0.00E+00 0.00E+00 1.51E+02 0.00E+00 0.00E+00 0.00E+00 1.60E+05 0.00E+00 0.00E+00 0.00E+00 0.00E+00
1
  ATMOSPHERIC PROFILES

   I      Z       P       T     CFC-11   CFC-12   CFC-13   CFC-14   CFC-22   CFC-113  CFC-114  CFC-115  CLONO2    HNO4    CHCL2F 
                                 CCL4     N2O5  
         (KM)    (MB)    (K)  (                                 ATM CM/KM                                                     )
   1     0.00 1013.000  299.7  0.00E+00 0.00E+00 0.00E+00 0.00E+00 0.00E+00 0.00E+00 0.00E+00 0.00E+00 0.00E+00 0.00E+00 0.00E+00
                               0.00E+00 0.00E+00
   2     1.00  904.000  293.7  0.00E+00 0.00E+00 0.00E+00 0.00E+00 0.00E+00 0.00E+00 0.00E+00 0.00E+00 0.00E+00 0.00E+00 0.00E+00
                               0.00E+00 0.00E+00
   3     2.00  805.000  287.7  0.00E+00 0.00E+00 0.00E+00 0.00E+00 0.00E+00 0.00E+00 0.00E+00 0.00E+00 0.00E+00 0.00E+00 0.00E+00
                               0.00E+00 0.00E+00
   4     3.00  715.000  283.7  0.00E+00 0.00E+00 0.00E+00 0.00E+00 0.00E+00 0.00E+00 0.00E+00 0.00E+00 0.00E+00 0.00E+00 0.00E+00
                               0.00E+00 0.00E+00
   5     4.00  633.000  277.0  0.00E+00 0.00E+00 0.00E+00 0.00E+00 0.00E+00 0.00E+00 0.00E+00 0.00E+00 0.00E+00 0.00E+00 0.00E+00
                               0.00E+00 0.00E+00
   6     5.00  559.000  270.3  0.00E+00 0.00E+00 0.00E+00 0.00E+00 0.00E+00 0.00E+00 0.00E+00 0.00E+00 0.00E+00 0.00E+00 0.00E+00
                               0.00E+00 0.00E+00
   7     6.00  492.000  263.6  0.00E+00 0.00E+00 0.00E+00 0.00E+00 0.00E+00 0.00E+00 0.00E+00 0.00E+00 0.00E+00 0.00E+00 0.00E+00
                               0.00E+00 0.00E+00
   8     7.00  432.000  257.0  0.00E+00 0.00E+00 0.00E+00 0.00E+00 0.00E+00 0.00E+00 0.00E+00 0.00E+00 0.00E+00 0.00E+00 0.00E+00
                               0.00E+00 0.00E+00
   9     8.00  378.000  250.3  0.00E+00 0.00E+00 0.00E+00 0.00E+00 0.00E+00 0.00E+00 0.00E+00 0.00E+00 0.00E+00 0.00E+00 0.00E+00
                               0.00E+00 0.00E+00
  10     9.00  329.000  243.6  0.00E+00 0.00E+00 0.00E+00 0.00E+00 0.00E+00 0.00E+00 0.00E+00 0.00E+00 0.00E+00 0.00E+00 0.00E+00
                               0.00E+00 0.00E+00
  11    10.00  286.000  237.0  0.00E+00 0.00E+00 0.00E+00 0.00E+00 0.00E+00 0.00E+00 0.00E+00 0.00E+00 0.00E+00 0.00E+00 0.00E+00
                               0.00E+00 0.00E+00
  12    11.00  247.000  230.1  0.00E+00 0.00E+00 0.00E+00 0.00E+00 0.00E+00 0.00E+00 0.00E+00 0.00E+00 0.00E+00 0.00E+00 0.00E+00
                               0.00E+00 0.00E+00
  13    12.00  213.000  223.6  0.00E+00 0.00E+00 0.00E+00 0.00E+00 0.00E+00 0.00E+00 0.00E+00 0.00E+00 0.00E+00 0.00E+00 0.00E+00
                               0.00E+00 0.00E+00
  14    13.00  182.000  217.0  0.00E+00 0.00E+00 0.00E+00 0.00E+00 0.00E+00 0.00E+00 0.00E+00 0.00E+00 0.00E+00 0.00E+00 0.00E+00
                               0.00E+00 0.00E+00
  15    14.00  156.000  210.3  0.00E+00 0.00E+00 0.00E+00 0.00E+00 0.00E+00 0.00E+00 0.00E+00 0.00E+00 0.00E+00 0.00E+00 0.00E+00
                               0.00E+00 0.00E+00
  16    15.00  132.000  203.7  0.00E+00 0.00E+00 0.00E+00 0.00E+00 0.00E+00 0.00E+00 0.00E+00 0.00E+00 0.00E+00 0.00E+00 0.00E+00
                               0.00E+00 0.00E+00
  17    16.00  111.000  197.0  0.00E+00 0.00E+00 0.00E+00 0.00E+00 0.00E+00 0.00E+00 0.00E+00 0.00E+00 0.00E+00 0.00E+00 0.00E+00
                               0.00E+00 0.00E+00
  18    17.00   93.700  194.8  0.00E+00 0.00E+00 0.00E+00 0.00E+00 0.00E+00 0.00E+00 0.00E+00 0.00E+00 0.00E+00 0.00E+00 0.00E+00
                               0.00E+00 0.00E+00
  19    18.00   78.900  198.8  0.00E+00 0.00E+00 0.00E+00 0.00E+00 0.00E+00 0.00E+00 0.00E+00 0.00E+00 0.00E+00 0.00E+00 0.00E+00
                               0.00E+00 0.00E+00
  20    19.00   66.600  202.7  0.00E+00 0.00E+00 0.00E+00 0.00E+00 0.00E+00 0.00E+00 0.00E+00 0.00E+00 0.00E+00 0.00E+00 0.00E+00
                               0.00E+00 0.00E+00
  21    20.00   56.500  206.7  0.00E+00 0.00E+00 0.00E+00 0.00E+00 0.00E+00 0.00E+00 0.00E+00 0.00E+00 0.00E+00 0.00E+00 0.00E+00
                               0.00E+00 0.00E+00
  22    21.00   48.000  210.7  0.00E+00 0.00E+00 0.00E+00 0.00E+00 0.00E+00 0.00E+00 0.00E+00 0.00E+00 0.00E+00 0.00E+00 0.00E+00
                               0.00E+00 0.00E+00
  23    22.00   40.900  214.6  0.00E+00 0.00E+00 0.00E+00 0.00E+00 0.00E+00 0.00E+00 0.00E+00 0.00E+00 0.00E+00 0.00E+00 0.00E+00
                               0.00E+00 0.00E+00
  24    23.00   35.000  217.0  0.00E+00 0.00E+00 0.00E+00 0.00E+00 0.00E+00 0.00E+00 0.00E+00 0.00E+00 0.00E+00 0.00E+00 0.00E+00
                               0.00E+00 0.00E+00
  25    24.00   30.000  219.2  0.00E+00 0.00E+00 0.00E+00 0.00E+00 0.00E+00 0.00E+00 0.00E+00 0.00E+00 0.00E+00 0.00E+00 0.00E+00
                               0.00E+00 0.00E+00
  26    25.00   25.700  221.4  0.00E+00 0.00E+00 0.00E+00 0.00E+00 0.00E+00 0.00E+00 0.00E+00 0.00E+00 0.00E+00 0.00E+00 0.00E+00
                               0.00E+00 0.00E+00
  27    30.00   12.200  232.3  0.00E+00 0.00E+00 0.00E+00 0.00E+00 0.00E+00 0.00E+00 0.00E+00 0.00E+00 0.00E+00 0.00E+00 0.00E+00
                               0.00E+00 0.00E+00
  28    35.00    6.000  243.1  0.00E+00 0.00E+00 0.00E+00 0.00E+00 0.00E+00 0.00E+00 0.00E+00 0.00E+00 0.00E+00 0.00E+00 0.00E+00
                               0.00E+00 0.00E+00
  29    40.00    3.050  254.0  0.00E+00 0.00E+00 0.00E+00 0.00E+00 0.00E+00 0.00E+00 0.00E+00 0.00E+00 0.00E+00 0.00E+00 0.00E+00
                               0.00E+00 0.00E+00
  30    45.00    1.590  264.8  0.00E+00 0.00E+00 0.00E+00 0.00E+00 0.00E+00 0.00E+00 0.00E+00 0.00E+00 0.00E+00 0.00E+00 0.00E+00
                               0.00E+00 0.00E+00
  31    50.00    0.854  270.2  0.00E+00 0.00E+00 0.00E+00 0.00E+00 0.00E+00 0.00E+00 0.00E+00 0.00E+00 0.00E+00 0.00E+00 0.00E+00
                               0.00E+00 0.00E+00
  32    70.00    0.058  218.9  0.00E+00 0.00E+00 0.00E+00 0.00E+00 0.00E+00 0.00E+00 0.00E+00 0.00E+00 0.00E+00 0.00E+00 0.00E+00
                               0.00E+00 0.00E+00
  33   100.00    0.000  190.7  0.00E+00 0.00E+00 0.00E+00 0.00E+00 0.00E+00 0.00E+00 0.00E+00 0.00E+00 0.00E+00 0.00E+00 0.00E+00
                               0.00E+00 0.00E+00


 CASE 3A: GIVEN H1,H2=SPACE,ANGLE



 TANGENT PATH WITH H1 =     20.000 AND ANGLE =    180.000 INTERSECTS THE EARTH

          H2 HAS BEEN RESET TO 0.0 AND LEN TO 0



 SLANT PATH PARAMETERS IN STANDARD FORM

          H1      =     20.000 KM
          H2      =      0.000 KM
          ANGLE   =    180.000 DEG
          PHI     =      0.000 DEG
          HMIN    =      0.000 KM
          LEN     =          0
1CALCULATION OF THE REFRACTED PATH THROUGH THE ATMOSPHERE


  I       ALTITUDE        THETA  DRANGE    RANGE    DBETA     BETA     PHI     DBEND  BENDING    PBAR    TBAR   RHOBAR
      FROM       TO
      (KM)      (KM)      (DEG)    (KM)     (KM)    (DEG)    (DEG)    (DEG)    (DEG)    (DEG)    (MB)    (K)  (GM CM-3)

          H2 TO H1

  1    0.000    1.000    0.000    1.000    1.000    0.000    0.000  180.000    0.000    0.000  958.316  296.74 1.12E-03
  2    1.000    2.000    0.000    1.000    2.000    0.000    0.000  180.000    0.000    0.000  854.330  290.74 1.02E-03
  3    2.000    3.000    0.000    1.000    3.000    0.000    0.000  180.000    0.000    0.000  759.895  285.73 9.26E-04
  4    3.000    4.000    0.000    1.000    4.000    0.000    0.000  180.000    0.000    0.000  673.837  280.39 8.36E-04
  5    4.000    5.000    0.000    1.000    5.000    0.000    0.000  180.000    0.000    0.000  595.849  273.69 7.58E-04
  6    5.000    6.000    0.000    1.000    6.000    0.000    0.000  180.000    0.000    0.000  525.360  266.99 6.85E-04
  7    6.000    7.000    0.000    1.000    7.000    0.000    0.000  180.000    0.000    0.000  461.873  260.34 6.17E-04
  8    7.000    8.000    0.000    1.000    8.000    0.000    0.000  180.000    0.000    0.000  404.881  253.70 5.55E-04
  9    8.000    9.000    0.000    1.000    9.000    0.000    0.000  180.000    0.000    0.000  353.389  247.00 4.98E-04
 10    9.000   10.000    0.000    1.000   10.000    0.000    0.000  180.000    0.000    0.000  307.402  240.35 4.45E-04
 11   10.000   11.000    0.000    1.000   11.000    0.000    0.000  180.000    0.000    0.000  266.404  233.60 3.97E-04
 12   11.000   12.000    0.000    1.000   12.000    0.000    0.000  180.000    0.000    0.000  229.919  226.90 3.52E-04
 13   12.000   13.000    0.000    1.000   13.000    0.000    0.000  180.000    0.000    0.000  197.423  220.35 3.12E-04
 14   13.000   14.000    0.000    1.000   14.000    0.000    0.000  180.000    0.000    0.000  168.932  213.70 2.75E-04
 15   14.000   15.000    0.000    1.000   15.000    0.000    0.000  180.000    0.000    0.000  143.936  207.06 2.42E-04
 16   15.000   16.000    0.000    1.000   16.000    0.000    0.000  180.000    0.000    0.000  121.442  200.41 2.11E-04
 17   16.000   17.000    0.000    1.000   17.000    0.000    0.000  180.000    0.000    0.000  102.334  195.93 1.82E-04
 18   17.000   18.000    0.000    1.000   18.000    0.000    0.000  180.000    0.000    0.000   86.325  196.73 1.52E-04
 19   18.000   19.000    0.000    1.000   19.000    0.000    0.000  180.000    0.000    0.000   72.770  200.68 1.26E-04
 20   19.000   20.000    0.000    1.000   20.000    0.000    0.000  180.000    0.000    0.000   61.566  204.63 1.05E-04




1CUMULATIVE ABSORBER AMOUNTS FOR THE PATH FROM H1 TO Z

  J     Z        TBAR     HNO3        O3 UV      CNTMSLF1   CNTMSLF2    CNTMFRN      O2
       (KM)       (K)   (ATM CM)    (ATM CM)    (MOL CM-2)  (MOL CM-2)  (MOL CM-2)(MOL CM-2)

  1   19.000   204.63   0.000E+00   0.000E+00   0.000E+00   0.000E+00   0.000E+00   1.804E+03
  2   18.000   200.68   0.000E+00   0.000E+00   0.000E+00   0.000E+00   0.000E+00   4.006E+03
  3   17.000   196.73   0.000E+00   0.000E+00   0.000E+00   0.000E+00   0.000E+00   6.712E+03
  4   16.000   195.93   0.000E+00   0.000E+00   0.000E+00   0.000E+00   0.000E+00   9.990E+03
  5   15.000   200.41   0.000E+00   0.000E+00   0.000E+00   0.000E+00   0.000E+00   1.386E+04
  6   14.000   207.06   0.000E+00   0.000E+00   0.000E+00   0.000E+00   0.000E+00   1.837E+04
  7   13.000   213.70   0.000E+00   0.000E+00   0.000E+00   0.000E+00   0.000E+00   2.360E+04
  8   12.000   220.35   0.000E+00   0.000E+00   0.000E+00   0.000E+00   0.000E+00   2.965E+04
  9   11.000   226.90   0.000E+00   0.000E+00   0.000E+00   0.000E+00   0.000E+00   3.664E+04
 10   10.000   233.60   0.000E+00   0.000E+00   0.000E+00   0.000E+00   0.000E+00   4.469E+04
 11    9.000   240.35   0.000E+00   0.000E+00   0.000E+00   0.000E+00   0.000E+00   5.394E+04
 12    8.000   247.00   0.000E+00   0.000E+00   0.000E+00   0.000E+00   0.000E+00   6.456E+04
 13    7.000   253.70   0.000E+00   0.000E+00   0.000E+00   0.000E+00   0.000E+00   7.674E+04
 14    6.000   260.34   0.000E+00   0.000E+00   0.000E+00   0.000E+00   0.000E+00   9.068E+04
 15    5.000   266.99   0.000E+00   0.000E+00   0.000E+00   0.000E+00   0.000E+00   1.066E+05
 16    4.000   273.69   0.000E+00   0.000E+00   0.000E+00   0.000E+00   0.000E+00   1.248E+05
 17    3.000   280.39   0.000E+00   0.000E+00   0.000E+00   0.000E+00   0.000E+00   1.456E+05
 18    2.000   285.73   0.000E+00   0.000E+00   0.000E+00   0.000E+00   0.000E+00   1.695E+05
 19    1.000   290.74   0.000E+00   0.000E+00   0.000E+00   0.000E+00   0.000E+00   1.969E+05
 20    0.000   296.74   0.000E+00   0.000E+00   0.000E+00   0.000E+00   0.000E+00   2.282E+05



1 J     Z       N2 CONT    MOL SCAT       AER 1       AER 2       AER 3       AER 4       CIRRUS
       (KM)

  1   19.000   6.026E-03   8.090E-02   0.000E+00   0.000E+00   5.850E-04   0.000E+00   0.000E+00
  2   18.000   1.478E-02   1.784E-01   0.000E+00   0.000E+00   1.135E-03   0.000E+00   0.000E+00
  3   17.000   2.759E-02   2.964E-01   0.000E+00   0.000E+00   1.608E-03   0.000E+00   0.000E+00
  4   16.000   4.575E-02   4.368E-01   0.000E+00   0.000E+00   2.011E-03   0.000E+00   0.000E+00
  5   15.000   7.019E-02   5.999E-01   0.000E+00   0.000E+00   2.400E-03   0.000E+00   0.000E+00
  6   14.000   1.024E-01   7.869E-01   0.000E+00   0.000E+00   2.818E-03   0.000E+00   0.000E+00
  7   13.000   1.440E-01   9.997E-01   0.000E+00   0.000E+00   3.297E-03   0.000E+00   0.000E+00
  8   12.000   1.974E-01   1.241E+00   0.000E+00   0.000E+00   3.873E-03   0.000E+00   0.000E+00
  9   11.000   2.658E-01   1.514E+00   0.000E+00   0.000E+00   4.590E-03   0.000E+00   0.000E+00
 10   10.000   3.524E-01   1.821E+00   0.000E+00   5.700E-04   4.990E-03   0.000E+00   0.000E+00
 11    9.000   4.614E-01   2.165E+00   0.000E+00   2.024E-03   4.990E-03   0.000E+00   0.000E+00
 12    8.000   5.978E-01   2.550E+00   0.000E+00   4.540E-03   4.990E-03   0.000E+00   0.000E+00
 13    7.000   7.674E-01   2.980E+00   0.000E+00   9.194E-03   4.990E-03   0.000E+00   0.000E+00
 14    6.000   9.771E-01   3.458E+00   0.000E+00   1.614E-02   4.990E-03   0.000E+00   0.000E+00
 15    5.000   1.235E+00   3.987E+00   0.000E+00   2.462E-02   4.990E-03   0.000E+00   0.000E+00
 16    4.000   1.551E+00   4.574E+00   0.000E+00   3.801E-02   4.990E-03   0.000E+00   0.000E+00
 17    3.000   1.936E+00   5.221E+00   0.000E+00   6.372E-02   4.990E-03   0.000E+00   0.000E+00
 18    2.000   2.407E+00   5.937E+00   3.105E-02   8.102E-02   4.990E-03   0.000E+00   0.000E+00
 19    1.000   2.983E+00   6.729E+00   3.122E-01   8.102E-02   4.990E-03   0.000E+00   0.000E+00
 20    0.000   3.678E+00   7.598E+00   1.082E+00   8.102E-02   4.990E-03   0.000E+00   0.000E+00



1  J    Z       H2O       O3        CO2       CO        CH4       N2O       O2        NH3       NO        NO2       SO2
      (KM)    (                                                      ATM CM                                             )

   1   19.00  0.00E+00  0.00E+00  2.07E+00  0.00E+00  0.00E+00  0.00E+00  1.69E+03  0.00E+00  0.00E+00  0.00E+00  0.00E+00
   2   18.00  0.00E+00  0.00E+00  4.56E+00  0.00E+00  0.00E+00  0.00E+00  3.73E+03  0.00E+00  0.00E+00  0.00E+00  0.00E+00
   3   17.00  0.00E+00  0.00E+00  7.58E+00  0.00E+00  0.00E+00  0.00E+00  6.19E+03  0.00E+00  0.00E+00  0.00E+00  0.00E+00
   4   16.00  0.00E+00  0.00E+00  1.12E+01  0.00E+00  0.00E+00  0.00E+00  9.12E+03  0.00E+00  0.00E+00  0.00E+00  0.00E+00
   5   15.00  0.00E+00  0.00E+00  1.53E+01  0.00E+00  0.00E+00  0.00E+00  1.25E+04  0.00E+00  0.00E+00  0.00E+00  0.00E+00
   6   14.00  0.00E+00  0.00E+00  2.01E+01  0.00E+00  0.00E+00  0.00E+00  1.64E+04  0.00E+00  0.00E+00  0.00E+00  0.00E+00
   7   13.00  0.00E+00  0.00E+00  2.56E+01  0.00E+00  0.00E+00  0.00E+00  2.09E+04  0.00E+00  0.00E+00  0.00E+00  0.00E+00
   8   12.00  0.00E+00  0.00E+00  3.17E+01  0.00E+00  0.00E+00  0.00E+00  2.59E+04  0.00E+00  0.00E+00  0.00E+00  0.00E+00
   9   11.00  0.00E+00  0.00E+00  3.87E+01  0.00E+00  0.00E+00  0.00E+00  3.16E+04  0.00E+00  0.00E+00  0.00E+00  0.00E+00
  10   10.00  0.00E+00  0.00E+00  4.66E+01  0.00E+00  0.00E+00  0.00E+00  3.80E+04  0.00E+00  0.00E+00  0.00E+00  0.00E+00
  11    9.00  0.00E+00  0.00E+00  5.54E+01  0.00E+00  0.00E+00  0.00E+00  4.52E+04  0.00E+00  0.00E+00  0.00E+00  0.00E+00
  12    8.00  0.00E+00  0.00E+00  6.52E+01  0.00E+00  0.00E+00  0.00E+00  5.33E+04  0.00E+00  0.00E+00  0.00E+00  0.00E+00
  13    7.00  0.00E+00  0.00E+00  7.62E+01  0.00E+00  0.00E+00  0.00E+00  6.22E+04  0.00E+00  0.00E+00  0.00E+00  0.00E+00
  14    6.00  0.00E+00  0.00E+00  8.85E+01  0.00E+00  0.00E+00  0.00E+00  7.22E+04  0.00E+00  0.00E+00  0.00E+00  0.00E+00
  15    5.00  0.00E+00  0.00E+00  1.02E+02  0.00E+00  0.00E+00  0.00E+00  8.33E+04  0.00E+00  0.00E+00  0.00E+00  0.00E+00
  16    4.00  0.00E+00  0.00E+00  1.17E+02  0.00E+00  0.00E+00  0.00E+00  9.55E+04  0.00E+00  0.00E+00  0.00E+00  0.00E+00
  17    3.00  0.00E+00  0.00E+00  1.34E+02  0.00E+00  0.00E+00  0.00E+00  1.09E+05  0.00E+00  0.00E+00  0.00E+00  0.00E+00
  18    2.00  0.00E+00  0.00E+00  1.52E+02  0.00E+00  0.00E+00  0.00E+00  1.24E+05  0.00E+00  0.00E+00  0.00E+00  0.00E+00
  19    1.00  0.00E+00  0.00E+00  1.72E+02  0.00E+00  0.00E+00  0.00E+00  1.41E+05  0.00E+00  0.00E+00  0.00E+00  0.00E+00
  20    0.00  0.00E+00  0.00E+00  1.94E+02  0.00E+00  0.00E+00  0.00E+00  1.59E+05  0.00E+00  0.00E+00  0.00E+00  0.00E+00



1  J    Z      CFC-11    CFC-12    CFC-13    CFC-14    CFC-22    CFC-113   CFC-114   CFC-115   CLONO2     HNO4     CHCL2F 
                CCL4      N2O5  
      (KM)    (                                                   ATM CM                                                )

   1   19.00  0.00E+00  0.00E+00  0.00E+00  0.00E+00  0.00E+00  0.00E+00  0.00E+00  0.00E+00  0.00E+00  0.00E+00  0.00E+00
              0.00E+00  0.00E+00
   2   18.00  0.00E+00  0.00E+00  0.00E+00  0.00E+00  0.00E+00  0.00E+00  0.00E+00  0.00E+00  0.00E+00  0.00E+00  0.00E+00
              0.00E+00  0.00E+00
   3   17.00  0.00E+00  0.00E+00  0.00E+00  0.00E+00  0.00E+00  0.00E+00  0.00E+00  0.00E+00  0.00E+00  0.00E+00  0.00E+00
              0.00E+00  0.00E+00
   4   16.00  0.00E+00  0.00E+00  0.00E+00  0.00E+00  0.00E+00  0.00E+00  0.00E+00  0.00E+00  0.00E+00  0.00E+00  0.00E+00
              0.00E+00  0.00E+00
   5   15.00  0.00E+00  0.00E+00  0.00E+00  0.00E+00  0.00E+00  0.00E+00  0.00E+00  0.00E+00  0.00E+00  0.00E+00  0.00E+00
              0.00E+00  0.00E+00
   6   14.00  0.00E+00  0.00E+00  0.00E+00  0.00E+00  0.00E+00  0.00E+00  0.00E+00  0.00E+00  0.00E+00  0.00E+00  0.00E+00
              0.00E+00  0.00E+00
   7   13.00  0.00E+00  0.00E+00  0.00E+00  0.00E+00  0.00E+00  0.00E+00  0.00E+00  0.00E+00  0.00E+00  0.00E+00  0.00E+00
              0.00E+00  0.00E+00
   8   12.00  0.00E+00  0.00E+00  0.00E+00  0.00E+00  0.00E+00  0.00E+00  0.00E+00  0.00E+00  0.00E+00  0.00E+00  0.00E+00
              0.00E+00  0.00E+00
   9   11.00  0.00E+00  0.00E+00  0.00E+00  0.00E+00  0.00E+00  0.00E+00  0.00E+00  0.00E+00  0.00E+00  0.00E+00  0.00E+00
              0.00E+00  0.00E+00
  10   10.00  0.00E+00  0.00E+00  0.00E+00  0.00E+00  0.00E+00  0.00E+00  0.00E+00  0.00E+00  0.00E+00  0.00E+00  0.00E+00
              0.00E+00  0.00E+00
  11    9.00  0.00E+00  0.00E+00  0.00E+00  0.00E+00  0.00E+00  0.00E+00  0.00E+00  0.00E+00  0.00E+00  0.00E+00  0.00E+00
              0.00E+00  0.00E+00
  12    8.00  0.00E+00  0.00E+00  0.00E+00  0.00E+00  0.00E+00  0.00E+00  0.00E+00  0.00E+00  0.00E+00  0.00E+00  0.00E+00
              0.00E+00  0.00E+00
  13    7.00  0.00E+00  0.00E+00  0.00E+00  0.00E+00  0.00E+00  0.00E+00  0.00E+00  0.00E+00  0.00E+00  0.00E+00  0.00E+00
              0.00E+00  0.00E+00
  14    6.00  0.00E+00  0.00E+00  0.00E+00  0.00E+00  0.00E+00  0.00E+00  0.00E+00  0.00E+00  0.00E+00  0.00E+00  0.00E+00
              0.00E+00  0.00E+00
  15    5.00  0.00E+00  0.00E+00  0.00E+00  0.00E+00  0.00E+00  0.00E+00  0.00E+00  0.00E+00  0.00E+00  0.00E+00  0.00E+00
              0.00E+00  0.00E+00
  16    4.00  0.00E+00  0.00E+00  0.00E+00  0.00E+00  0.00E+00  0.00E+00  0.00E+00  0.00E+00  0.00E+00  0.00E+00  0.00E+00
              0.00E+00  0.00E+00
  17    3.00  0.00E+00  0.00E+00  0.00E+00  0.00E+00  0.00E+00  0.00E+00  0.00E+00  0.00E+00  0.00E+00  0.00E+00  0.00E+00
              0.00E+00  0.00E+00
  18    2.00  0.00E+00  0.00E+00  0.00E+00  0.00E+00  0.00E+00  0.00E+00  0.00E+00  0.00E+00  0.00E+00  0.00E+00  0.00E+00
              0.00E+00  0.00E+00
  19    1.00  0.00E+00  0.00E+00  0.00E+00  0.00E+00  0.00E+00  0.00E+00  0.00E+00  0.00E+00  0.00E+00  0.00E+00  0.00E+00
              0.00E+00  0.00E+00
  20    0.00  0.00E+00  0.00E+00  0.00E+00  0.00E+00  0.00E+00  0.00E+00  0.00E+00  0.00E+00  0.00E+00  0.00E+00  0.00E+00
              0.00E+00  0.00E+00


0SUMMARY OF THE GEOMETRY CALCULATION

          H1      =     20.000 KM
          H2      =      0.000 KM
          ANGLE   =    180.000 DEG
          RANGE   =     20.000 KM
          BETA    =      0.000 DEG
          PHI     =      0.000 DEG
          HMIN    =      0.000 KM
          BENDING =      0.000 DEG
          LEN     =          0




1EQUIVALENT SEA LEVEL TOTAL ABSORBER AMOUNTS

                 HNO3      O3 UV       CNTMSLF1    CNTMSLF2   CNTMFRN
               (ATM CM)   (ATM CM)     (MOL CM-2)  (MOL CM-2)  (MOL CM-2)  (MOL CM-2)

             0.000E+00   0.000E+00   0.000E+00   0.000E+00   0.000E+00


              N2 CONT    MOL SCAT       AER 1       AER 2       AER 3       AER 4     CIRRUS      MEAN RH
                                                                                                  (PRCNT)

             3.678E+00   7.598E+00   1.082E+00   8.102E-02   4.990E-03   0.000E+00   0.000E+00        0.00


                 H2O        O3          CO2         CO          CH4         N2O          O2
               (                                        ATM CM                            )

             0.000E+00   0.000E+00   1.944E+02   0.000E+00   0.000E+00   0.000E+00   1.587E+05

                 NH3        NO          NO2         SO2
                 (               ATM CM               )

             0.000E+00   0.000E+00   0.000E+00   0.000E+00

             CFC-11      CFC-12      CFC-13      CFC-14      CFC-22      CFC-113     CFC-114
                 (                                      ATM CM                            )

             0.000E+00   0.000E+00   0.000E+00   0.000E+00   0.000E+00   0.000E+00   0.000E+00

             CFC-115     CLONO2       HNO4       CHCL2F       CCL4        N2O5  
                 (                                      ATM CM                            )

             0.000E+00   0.000E+00   0.000E+00   0.000E+00   0.000E+00   0.000E+00
  iv           -5
  iv            0
1                                             RADIANCE(WATTS/CM2-STER-XXX)
0  FREQ   WAVLEN    PATH THERMAL      SURFACE EMISSION    SURFACE REFLECTED     TOTAL RADIANCE   INTEGRAL    TOTAL
  (CM-1) (MICRN)    (CM-1)   (MICRN)    (CM-1)   (MICRN)    (CM-1)   (MICRN)    (CM-1)   (MICRN)    (CM-1)   TRANS

      2. 4999.998  4.31E-10  1.72E-13  5.42E-10  2.17E-13  0.00E+00  0.00E+00  9.73E-10  3.89E-13  9.73E-10  0.45354
      4. 2500.000  4.32E-10  6.91E-13  3.47E-09  5.55E-12  0.00E+00  0.00E+00  3.90E-09  6.24E-12  8.78E-09  0.85826
      6. 1666.666  5.94E-11  2.14E-13  8.68E-09  3.12E-11  0.00E+00  0.00E+00  8.74E-09  3.15E-11  2.63E-08  0.99213
      8. 1250.000  1.04E-10  6.63E-13  1.53E-08  9.77E-11  0.00E+00  0.00E+00  1.54E-08  9.83E-11  5.70E-08  0.99245
     10. 1000.000  1.03E-10  1.03E-12  2.37E-08  2.37E-10  0.00E+00  0.00E+00  2.38E-08  2.38E-10  1.05E-07  0.99543
     12.  833.333  1.41E-09  2.03E-11  3.25E-08  4.68E-10  0.00E+00  0.00E+00  3.39E-08  4.88E-10  1.72E-07  0.95245
     14.  714.286  6.43E-09  1.26E-10  3.86E-08  7.56E-10  0.00E+00  0.00E+00  4.50E-08  8.82E-10  2.62E-07  0.83573
     16.  625.000  5.82E-09  1.49E-10  5.32E-08  1.36E-09  0.00E+00  0.00E+00  5.90E-08  1.51E-09  3.80E-07  0.88549
     18.  555.555  6.53E-10  2.12E-11  7.48E-08  2.42E-09  0.00E+00  0.00E+00  7.55E-08  2.45E-09  5.31E-07  0.99045
     20.  500.000  5.23E-10  2.09E-11  9.22E-08  3.69E-09  0.00E+00  0.00E+00  9.27E-08  3.71E-09  7.17E-07  0.99395
     22.  454.545  8.97E-10  4.34E-11  1.11E-07  5.36E-09  0.00E+00  0.00E+00  1.12E-07  5.40E-09  9.40E-07  0.99162
     24.  416.667  1.15E-08  6.62E-10  1.19E-07  6.85E-09  0.00E+00  0.00E+00  1.30E-07  7.51E-09  1.20E-06  0.89962
     26.  384.615  2.65E-08  1.79E-09  1.23E-07  8.31E-09  0.00E+00  0.00E+00  1.49E-07  1.01E-08  1.50E-06  0.79546
     28.  357.143  1.88E-08  1.48E-09  1.56E-07  1.22E-08  0.00E+00  0.00E+00  1.75E-07  1.37E-08  1.85E-06  0.87459
     30.  333.333  1.82E-09  1.63E-10  2.02E-07  1.81E-08  0.00E+00  0.00E+00  2.03E-07  1.83E-08  2.26E-06  0.99035
     32.  312.500  1.61E-09  1.65E-10  2.29E-07  2.34E-08  0.00E+00  0.00E+00  2.30E-07  2.36E-08  2.72E-06  0.99264
     34.  294.118  1.28E-08  1.48E-09  2.44E-07  2.82E-08  0.00E+00  0.00E+00  2.57E-07  2.97E-08  3.23E-06  0.94474
     36.  277.778  3.97E-08  5.15E-09  2.41E-07  3.13E-08  0.00E+00  0.00E+00  2.81E-07  3.64E-08  3.79E-06  0.83885
     38.  263.158  5.10E-08  7.36E-09  2.60E-07  3.75E-08  0.00E+00  0.00E+00  3.11E-07  4.49E-08  4.41E-06  0.80993
     40.  250.000  2.24E-08  3.59E-09  3.27E-07  5.23E-08  0.00E+00  0.00E+00  3.49E-07  5.59E-08  5.11E-06  0.92319
     42.  238.095  3.71E-09  6.54E-10  3.83E-07  6.76E-08  0.00E+00  0.00E+00  3.87E-07  6.83E-08  5.89E-06  0.98981
     44.  227.273  3.73E-09  7.21E-10  4.19E-07  8.11E-08  0.00E+00  0.00E+00  4.23E-07  8.18E-08  6.73E-06  0.99080
     46.  217.391  2.67E-08  5.65E-09  4.29E-07  9.07E-08  0.00E+00  0.00E+00  4.55E-07  9.64E-08  7.64E-06  0.93434
     48.  208.333  7.69E-08  1.77E-08  4.07E-07  9.38E-08  0.00E+00  0.00E+00  4.84E-07  1.12E-07  8.61E-06  0.81927
     50.  200.000  7.78E-08  1.94E-08  4.45E-07  1.11E-07  0.00E+00  0.00E+00  5.23E-07  1.31E-07  9.66E-06  0.82626
     52.  192.308  3.33E-08  9.01E-09  5.40E-07  1.46E-07  0.00E+00  0.00E+00  5.73E-07  1.55E-07  1.08E-05  0.93047
     54.  185.185  6.28E-09  1.83E-09  6.15E-07  1.79E-07  0.00E+00  0.00E+00  6.21E-07  1.81E-07  1.20E-05  0.98948
     56.  178.571  7.58E-09  2.38E-09  6.57E-07  2.06E-07  0.00E+00  0.00E+00  6.64E-07  2.08E-07  1.34E-05  0.98813
     58.  172.414  6.48E-08  2.18E-08  6.33E-07  2.13E-07  0.00E+00  0.00E+00  6.98E-07  2.35E-07  1.48E-05  0.89290
     60.  166.667  1.35E-07  4.84E-08  5.95E-07  2.14E-07  0.00E+00  0.00E+00  7.29E-07  2.62E-07  1.62E-05  0.78736
     62.  161.290  9.20E-08  3.54E-08  6.95E-07  2.67E-07  0.00E+00  0.00E+00  7.86E-07  3.02E-07  1.78E-05  0.86529
     64.  156.250  1.38E-08  5.64E-09  8.36E-07  3.42E-07  0.00E+00  0.00E+00  8.50E-07  3.48E-07  1.95E-05  0.98277
     66.  151.515  9.97E-09  4.34E-09  8.90E-07  3.88E-07  0.00E+00  0.00E+00  9.00E-07  3.92E-07  2.13E-05  0.98867
     68.  147.059  1.48E-08  6.84E-09  9.35E-07  4.32E-07  0.00E+00  0.00E+00  9.50E-07  4.39E-07  2.32E-05  0.98377
     70.  142.857  9.74E-08  4.77E-08  8.89E-07  4.36E-07  0.00E+00  0.00E+00  9.86E-07  4.83E-07  2.52E-05  0.88709
     72.  138.889  1.73E-07  8.95E-08  8.49E-07  4.40E-07  0.00E+00  0.00E+00  1.02E-06  5.30E-07  2.72E-05  0.80492
     74.  135.135  1.05E-07  5.72E-08  9.86E-07  5.40E-07  0.00E+00  0.00E+00  1.09E-06  5.97E-07  2.94E-05  0.88931
     76.  131.579  1.67E-08  9.67E-09  1.15E-06  6.62E-07  0.00E+00  0.00E+00  1.16E-06  6.72E-07  3.17E-05  0.98525
     78.  128.205  1.74E-08  1.06E-08  1.20E-06  7.31E-07  0.00E+00  0.00E+00  1.22E-06  7.42E-07  3.42E-05  0.98544
     80.  125.000  6.05E-08  3.87E-08  1.21E-06  7.73E-07  0.00E+00  0.00E+00  1.27E-06  8.11E-07  3.67E-05  0.94674
     82.  121.951  1.52E-07  1.02E-07  1.16E-06  7.77E-07  0.00E+00  0.00E+00  1.31E-06  8.79E-07  3.93E-05  0.86694
     84.  119.048  1.72E-07  1.21E-07  1.19E-06  8.41E-07  0.00E+00  0.00E+00  1.36E-06  9.62E-07  4.20E-05  0.85468
     86.  116.279  7.51E-08  5.55E-08  1.37E-06  1.01E-06  0.00E+00  0.00E+00  1.44E-06  1.07E-06  4.49E-05  0.94047
     88.  113.636  2.39E-08  1.85E-08  1.49E-06  1.15E-06  0.00E+00  0.00E+00  1.51E-06  1.17E-06  4.79E-05  0.98396
     90.  111.111  2.60E-08  2.11E-08  1.55E-06  1.25E-06  0.00E+00  0.00E+00  1.57E-06  1.27E-06  5.11E-05  0.98320
     92.  108.696  7.00E-08  5.93E-08  1.56E-06  1.32E-06  0.00E+00  0.00E+00  1.63E-06  1.38E-06  5.44E-05  0.95273
     94.  106.383  1.70E-07  1.50E-07  1.50E-06  1.33E-06  0.00E+00  0.00E+00  1.67E-06  1.48E-06  5.77E-05  0.88430
     96.  104.167  1.71E-07  1.57E-07  1.56E-06  1.44E-06  0.00E+00  0.00E+00  1.74E-06  1.60E-06  6.12E-05  0.88670
     98.  102.041  7.88E-08  7.57E-08  1.74E-06  1.67E-06  0.00E+00  0.00E+00  1.82E-06  1.75E-06  6.48E-05  0.95113
    100.  100.000  3.27E-08  3.27E-08  1.86E-06  1.86E-06  0.00E+00  0.00E+00  1.89E-06  1.89E-06  6.86E-05  0.98257
  iv          105
1                                             RADIANCE(WATTS/CM2-STER-XXX)
0  FREQ   WAVLEN    PATH THERMAL      SURFACE EMISSION    SURFACE REFLECTED     TOTAL RADIANCE   INTEGRAL    TOTAL
  (CM-1) (MICRN)    (CM-1)   (MICRN)    (CM-1)   (MICRN)    (CM-1)   (MICRN)    (CM-1)   (MICRN)    (CM-1)   TRANS

    102.   98.039  3.56E-08  3.70E-08  1.92E-06  2.00E-06  0.00E+00  0.00E+00  1.96E-06  2.04E-06  7.25E-05  0.98163
    104.   96.154  1.14E-07  1.23E-07  1.90E-06  2.05E-06  0.00E+00  0.00E+00  2.01E-06  2.18E-06  7.65E-05  0.93680
    106.   94.340  2.26E-07  2.53E-07  1.83E-06  2.06E-06  0.00E+00  0.00E+00  2.06E-06  2.31E-06  8.07E-05  0.87488
    108.   92.593  1.39E-07  1.62E-07  2.01E-06  2.34E-06  0.00E+00  0.00E+00  2.15E-06  2.50E-06  8.50E-05  0.92756
    110.   90.909  4.64E-08  5.61E-08  2.19E-06  2.65E-06  0.00E+00  0.00E+00  2.23E-06  2.70E-06  8.94E-05  0.97896
    112.   89.286  4.62E-08  5.80E-08  2.26E-06  2.83E-06  0.00E+00  0.00E+00  2.30E-06  2.89E-06  9.40E-05  0.97978
    114.   87.719  4.98E-08  6.47E-08  2.32E-06  3.02E-06  0.00E+00  0.00E+00  2.37E-06  3.08E-06  9.88E-05  0.97883
    116.   86.207  1.20E-07  1.61E-07  2.31E-06  3.11E-06  0.00E+00  0.00E+00  2.43E-06  3.27E-06  1.04E-04  0.94633
    118.   84.746  2.20E-07  3.07E-07  2.26E-06  3.15E-06  0.00E+00  0.00E+00  2.48E-06  3.46E-06  1.09E-04  0.89991
    120.   83.333  1.35E-07  1.95E-07  2.44E-06  3.51E-06  0.00E+00  0.00E+00  2.57E-06  3.71E-06  1.14E-04  0.94223
    122.   81.967  5.92E-08  8.82E-08  2.60E-06  3.87E-06  0.00E+00  0.00E+00  2.66E-06  3.96E-06  1.19E-04  0.97757
    124.   80.645  6.10E-08  9.38E-08  2.67E-06  4.11E-06  0.00E+00  0.00E+00  2.73E-06  4.21E-06  1.25E-04  0.97756
    126.   79.365  8.81E-08  1.40E-07  2.72E-06  4.31E-06  0.00E+00  0.00E+00  2.81E-06  4.45E-06  1.30E-04  0.96726
    128.   78.125  1.63E-07  2.67E-07  2.70E-06  4.43E-06  0.00E+00  0.00E+00  2.87E-06  4.70E-06  1.36E-04  0.93796
    130.   76.923  1.75E-07  2.96E-07  2.77E-06  4.67E-06  0.00E+00  0.00E+00  2.94E-06  4.97E-06  1.42E-04  0.93453
    132.   75.758  1.06E-07  1.86E-07  2.92E-06  5.09E-06  0.00E+00  0.00E+00  3.03E-06  5.28E-06  1.48E-04  0.96303
    134.   74.627  8.01E-08  1.44E-07  3.03E-06  5.44E-06  0.00E+00  0.00E+00  3.11E-06  5.58E-06  1.54E-04  0.97410
    136.   73.529  8.39E-08  1.55E-07  3.10E-06  5.74E-06  0.00E+00  0.00E+00  3.19E-06  5.89E-06  1.60E-04  0.97351
    138.   72.464  1.06E-07  2.01E-07  3.16E-06  6.01E-06  0.00E+00  0.00E+00  3.26E-06  6.21E-06  1.67E-04  0.96675
    140.   71.429  1.64E-07  3.21E-07  3.17E-06  6.21E-06  0.00E+00  0.00E+00  3.33E-06  6.53E-06  1.74E-04  0.94766
    142.   70.423  1.87E-07  3.76E-07  3.22E-06  6.49E-06  0.00E+00  0.00E+00  3.40E-06  6.87E-06  1.80E-04  0.94092
    144.   69.444  1.02E-07  2.11E-07  3.40E-06  7.04E-06  0.00E+00  0.00E+00  3.50E-06  7.25E-06  1.87E-04  0.97077
    146.   68.493  1.05E-07  2.24E-07  3.47E-06  7.40E-06  0.00E+00  0.00E+00  3.58E-06  7.62E-06  1.95E-04  0.97049
    148.   67.568  1.10E-07  2.40E-07  3.55E-06  7.77E-06  0.00E+00  0.00E+00  3.65E-06  8.01E-06  2.02E-04  0.96983
    150.   66.667  1.34E-07  3.02E-07  3.60E-06  8.09E-06  0.00E+00  0.00E+00  3.73E-06  8.40E-06  2.09E-04  0.96315
    152.   65.789  1.90E-07  4.40E-07  3.61E-06  8.35E-06  0.00E+00  0.00E+00  3.80E-06  8.79E-06  2.17E-04  0.94709
    154.   64.935  1.48E-07  3.50E-07  3.74E-06  8.88E-06  0.00E+00  0.00E+00  3.89E-06  9.23E-06  2.25E-04  0.96104
    156.   64.103  1.27E-07  3.10E-07  3.85E-06  9.36E-06  0.00E+00  0.00E+00  3.97E-06  9.67E-06  2.33E-04  0.96778
    158.   63.291  1.32E-07  3.29E-07  3.92E-06  9.79E-06  0.00E+00  0.00E+00  4.05E-06  1.01E-05  2.41E-04  0.96732
    160.   62.500  1.42E-07  3.63E-07  3.99E-06  1.02E-05  0.00E+00  0.00E+00  4.13E-06  1.06E-05  2.49E-04  0.96532
    162.   61.728  1.68E-07  4.41E-07  4.04E-06  1.06E-05  0.00E+00  0.00E+00  4.21E-06  1.11E-05  2.57E-04  0.95909
    164.   60.976  1.74E-07  4.69E-07  4.12E-06  1.11E-05  0.00E+00  0.00E+00  4.29E-06  1.15E-05  2.66E-04  0.95826
    166.   60.241  1.57E-07  4.32E-07  4.22E-06  1.16E-05  0.00E+00  0.00E+00  4.38E-06  1.21E-05  2.75E-04  0.96373
    168.   59.524  1.55E-07  4.36E-07  4.31E-06  1.22E-05  0.00E+00  0.00E+00  4.46E-06  1.26E-05  2.84E-04  0.96512
    170.   58.824  1.59E-07  4.59E-07  4.38E-06  1.27E-05  0.00E+00  0.00E+00  4.54E-06  1.31E-05  2.93E-04  0.96476
    172.   58.140  1.66E-07  4.92E-07  4.46E-06  1.32E-05  0.00E+00  0.00E+00  4.63E-06  1.37E-05  3.02E-04  0.96375
    174.   57.471  1.82E-07  5.52E-07  4.52E-06  1.37E-05  0.00E+00  0.00E+00  4.71E-06  1.42E-05  3.11E-04  0.96064
    176.   56.818  1.87E-07  5.79E-07  4.60E-06  1.43E-05  0.00E+00  0.00E+00  4.79E-06  1.48E-05  3.21E-04  0.96033
    178.   56.180  1.80E-07  5.69E-07  4.69E-06  1.49E-05  0.00E+00  0.00E+00  4.87E-06  1.54E-05  3.31E-04  0.96279
    180.   55.556  1.81E-07  5.85E-07  4.78E-06  1.55E-05  0.00E+00  0.00E+00  4.96E-06  1.61E-05  3.41E-04  0.96326
    182.   54.945  1.85E-07  6.13E-07  4.85E-06  1.61E-05  0.00E+00  0.00E+00  5.04E-06  1.67E-05  3.51E-04  0.96297
    184.   54.348  1.92E-07  6.51E-07  4.93E-06  1.67E-05  0.00E+00  0.00E+00  5.12E-06  1.73E-05  3.61E-04  0.96212
    186.   53.763  2.05E-07  7.10E-07  5.00E-06  1.73E-05  0.00E+00  0.00E+00  5.20E-06  1.80E-05  3.71E-04  0.96004
    188.   53.191  2.02E-07  7.13E-07  5.09E-06  1.80E-05  0.00E+00  0.00E+00  5.29E-06  1.87E-05  3.82E-04  0.96150
    190.   52.632  2.03E-07  7.33E-07  5.17E-06  1.87E-05  0.00E+00  0.00E+00  5.37E-06  1.94E-05  3.93E-04  0.96190
    192.   52.083  2.07E-07  7.65E-07  5.25E-06  1.93E-05  0.00E+00  0.00E+00  5.46E-06  2.01E-05  4.04E-04  0.96166
    194.   51.546  2.13E-07  8.00E-07  5.33E-06  2.00E-05  0.00E+00  0.00E+00  5.54E-06  2.08E-05  4.15E-04  0.96129
    196.   51.020  2.20E-07  8.43E-07  5.40E-06  2.08E-05  0.00E+00  0.00E+00  5.62E-06  2.16E-05  4.26E-04  0.96056
    198.   50.505  2.24E-07  8.79E-07  5.48E-06  2.15E-05  0.00E+00  0.00E+00  5.71E-06  2.24E-05  4.37E-04  0.96030
    200.   50.000  2.26E-07  9.05E-07  5.56E-06  2.23E-05  0.00E+00  0.00E+00  5.79E-06  2.32E-05  4.49E-04  0.96054
  iv          205
1                                             RADIANCE(WATTS/CM2-STER-XXX)
0  FREQ   WAVLEN    PATH THERMAL      SURFACE EMISSION    SURFACE REFLECTED     TOTAL RADIANCE   INTEGRAL    TOTAL
  (CM-1) (MICRN)    (CM-1)   (MICRN)    (CM-1)   (MICRN)    (CM-1)   (MICRN)    (CM-1)   (MICRN)    (CM-1)   TRANS

    202.   49.505  2.31E-07  9.42E-07  5.64E-06  2.30E-05  0.00E+00  0.00E+00  5.87E-06  2.40E-05  4.61E-04  0.96033
    204.   49.020  2.36E-07  9.84E-07  5.72E-06  2.38E-05  0.00E+00  0.00E+00  5.96E-06  2.48E-05  4.73E-04  0.95996
    206.   48.544  2.42E-07  1.03E-06  5.80E-06  2.46E-05  0.00E+00  0.00E+00  6.04E-06  2.56E-05  4.85E-04  0.95952
    208.   48.077  2.48E-07  1.07E-06  5.88E-06  2.54E-05  0.00E+00  0.00E+00  6.12E-06  2.65E-05  4.97E-04  0.95906
    210.   47.619  2.54E-07  1.12E-06  5.95E-06  2.63E-05  0.00E+00  0.00E+00  6.21E-06  2.74E-05  5.09E-04  0.95863
    212.   47.170  2.58E-07  1.16E-06  6.03E-06  2.71E-05  0.00E+00  0.00E+00  6.29E-06  2.83E-05  5.22E-04  0.95858
    214.   46.729  2.64E-07  1.21E-06  6.11E-06  2.80E-05  0.00E+00  0.00E+00  6.37E-06  2.92E-05  5.35E-04  0.95825
    216.   46.296  2.69E-07  1.26E-06  6.19E-06  2.89E-05  0.00E+00  0.00E+00  6.46E-06  3.01E-05  5.48E-04  0.95793
    218.   45.872  2.75E-07  1.31E-06  6.27E-06  2.98E-05  0.00E+00  0.00E+00  6.54E-06  3.11E-05  5.61E-04  0.95758
    220.   45.455  2.81E-07  1.36E-06  6.34E-06  3.07E-05  0.00E+00  0.00E+00  6.62E-06  3.21E-05  5.74E-04  0.95715
    222.   45.045  2.86E-07  1.41E-06  6.42E-06  3.16E-05  0.00E+00  0.00E+00  6.71E-06  3.31E-05  5.87E-04  0.95698
    224.   44.643  2.91E-07  1.46E-06  6.50E-06  3.26E-05  0.00E+00  0.00E+00  6.79E-06  3.41E-05  6.01E-04  0.95670
    226.   44.248  2.97E-07  1.52E-06  6.58E-06  3.36E-05  0.00E+00  0.00E+00  6.87E-06  3.51E-05  6.15E-04  0.95641
    228.   43.860  3.02E-07  1.57E-06  6.65E-06  3.46E-05  0.00E+00  0.00E+00  6.96E-06  3.62E-05  6.29E-04  0.95611
    230.   43.478  3.08E-07  1.63E-06  6.73E-06  3.56E-05  0.00E+00  0.00E+00  7.04E-06  3.72E-05  6.43E-04  0.95581
    232.   43.103  3.13E-07  1.69E-06  6.81E-06  3.66E-05  0.00E+00  0.00E+00  7.12E-06  3.83E-05  6.57E-04  0.95553
    234.   42.735  3.19E-07  1.75E-06  6.88E-06  3.77E-05  0.00E+00  0.00E+00  7.20E-06  3.94E-05  6.71E-04  0.95528
    236.   42.373  3.24E-07  1.81E-06  6.96E-06  3.88E-05  0.00E+00  0.00E+00  7.28E-06  4.06E-05  6.86E-04  0.95501
    238.   42.017  3.30E-07  1.87E-06  7.04E-06  3.99E-05  0.00E+00  0.00E+00  7.37E-06  4.17E-05  7.01E-04  0.95475
    240.   41.667  3.35E-07  1.93E-06  7.11E-06  4.10E-05  0.00E+00  0.00E+00  7.45E-06  4.29E-05  7.16E-04  0.95448
    242.   41.322  3.41E-07  2.00E-06  7.19E-06  4.21E-05  0.00E+00  0.00E+00  7.53E-06  4.41E-05  7.31E-04  0.95422
    244.   40.984  3.47E-07  2.06E-06  7.26E-06  4.33E-05  0.00E+00  0.00E+00  7.61E-06  4.53E-05  7.46E-04  0.95398
    246.   40.650  3.52E-07  2.13E-06  7.34E-06  4.44E-05  0.00E+00  0.00E+00  7.69E-06  4.66E-05  7.61E-04  0.95373
    248.   40.323  3.58E-07  2.20E-06  7.42E-06  4.56E-05  0.00E+00  0.00E+00  7.77E-06  4.78E-05  7.77E-04  0.95349
    250.   40.000  3.63E-07  2.27E-06  7.49E-06  4.68E-05  0.00E+00  0.00E+00  7.85E-06  4.91E-05  7.92E-04  0.95327
    252.   39.683  3.68E-07  2.33E-06  7.57E-06  4.81E-05  0.00E+00  0.00E+00  7.93E-06  5.04E-05  8.08E-04  0.95316
    254.   39.370  3.72E-07  2.40E-06  7.64E-06  4.93E-05  0.00E+00  0.00E+00  8.01E-06  5.17E-05  8.24E-04  0.95307
    256.   39.063  3.76E-07  2.47E-06  7.72E-06  5.06E-05  0.00E+00  0.00E+00  8.09E-06  5.30E-05  8.41E-04  0.95298
    258.   38.760  3.81E-07  2.53E-06  7.79E-06  5.19E-05  0.00E+00  0.00E+00  8.17E-06  5.44E-05  8.57E-04  0.95289
    260.   38.462  3.85E-07  2.60E-06  7.87E-06  5.32E-05  0.00E+00  0.00E+00  8.25E-06  5.58E-05  8.73E-04  0.95281
    262.   38.168  3.89E-07  2.67E-06  7.94E-06  5.45E-05  0.00E+00  0.00E+00  8.33E-06  5.72E-05  8.90E-04  0.95272
    264.   37.879  3.94E-07  2.74E-06  8.02E-06  5.59E-05  0.00E+00  0.00E+00  8.41E-06  5.86E-05  9.07E-04  0.95264
    266.   37.594  3.98E-07  2.82E-06  8.09E-06  5.73E-05  0.00E+00  0.00E+00  8.49E-06  6.01E-05  9.24E-04  0.95256
    268.   37.313  4.02E-07  2.89E-06  8.17E-06  5.86E-05  0.00E+00  0.00E+00  8.57E-06  6.15E-05  9.41E-04  0.95247
    270.   37.037  4.07E-07  2.96E-06  8.24E-06  6.01E-05  0.00E+00  0.00E+00  8.65E-06  6.30E-05  9.58E-04  0.95239
    272.   36.765  4.11E-07  3.04E-06  8.31E-06  6.15E-05  0.00E+00  0.00E+00  8.72E-06  6.45E-05  9.76E-04  0.95232
    274.   36.496  4.15E-07  3.12E-06  8.39E-06  6.30E-05  0.00E+00  0.00E+00  8.80E-06  6.61E-05  9.93E-04  0.95224
    276.   36.232  4.19E-07  3.20E-06  8.46E-06  6.44E-05  0.00E+00  0.00E+00  8.88E-06  6.76E-05  1.01E-03  0.95216
    278.   35.971  4.24E-07  3.27E-06  8.53E-06  6.59E-05  0.00E+00  0.00E+00  8.95E-06  6.92E-05  1.03E-03  0.95209
    280.   35.714  4.28E-07  3.35E-06  8.60E-06  6.74E-05  0.00E+00  0.00E+00  9.03E-06  7.08E-05  1.05E-03  0.95201
    282.   35.461  4.32E-07  3.44E-06  8.67E-06  6.90E-05  0.00E+00  0.00E+00  9.11E-06  7.24E-05  1.07E-03  0.95194
    284.   35.211  4.36E-07  3.52E-06  8.75E-06  7.05E-05  0.00E+00  0.00E+00  9.18E-06  7.41E-05  1.08E-03  0.95187
    286.   34.965  4.41E-07  3.60E-06  8.82E-06  7.21E-05  0.00E+00  0.00E+00  9.26E-06  7.57E-05  1.10E-03  0.95180
    288.   34.722  4.45E-07  3.69E-06  8.89E-06  7.37E-05  0.00E+00  0.00E+00  9.33E-06  7.74E-05  1.12E-03  0.95173
    290.   34.483  4.49E-07  3.77E-06  8.96E-06  7.53E-05  0.00E+00  0.00E+00  9.41E-06  7.91E-05  1.14E-03  0.95166
    292.   34.247  4.53E-07  3.86E-06  9.03E-06  7.70E-05  0.00E+00  0.00E+00  9.48E-06  8.08E-05  1.16E-03  0.95159
    294.   34.014  4.57E-07  3.95E-06  9.10E-06  7.86E-05  0.00E+00  0.00E+00  9.56E-06  8.26E-05  1.18E-03  0.95152
    296.   33.784  4.61E-07  4.04E-06  9.17E-06  8.03E-05  0.00E+00  0.00E+00  9.63E-06  8.44E-05  1.20E-03  0.95145
    298.   33.557  4.65E-07  4.13E-06  9.24E-06  8.20E-05  0.00E+00  0.00E+00  9.70E-06  8.62E-05  1.22E-03  0.95139
    300.   33.333  4.69E-07  4.22E-06  9.31E-06  8.37E-05  0.00E+00  0.00E+00  9.77E-06  8.80E-05  1.24E-03  0.95132
  iv          305
1                                             RADIANCE(WATTS/CM2-STER-XXX)
0  FREQ   WAVLEN    PATH THERMAL      SURFACE EMISSION    SURFACE REFLECTED     TOTAL RADIANCE   INTEGRAL    TOTAL
  (CM-1) (MICRN)    (CM-1)   (MICRN)    (CM-1)   (MICRN)    (CM-1)   (MICRN)    (CM-1)   (MICRN)    (CM-1)   TRANS

    302.   33.113  4.73E-07  4.32E-06  9.37E-06  8.55E-05  0.00E+00  0.00E+00  9.85E-06  8.98E-05  1.26E-03  0.95126
    304.   32.895  4.77E-07  4.41E-06  9.44E-06  8.73E-05  0.00E+00  0.00E+00  9.92E-06  9.17E-05  1.28E-03  0.95120
    306.   32.680  4.81E-07  4.51E-06  9.51E-06  8.90E-05  0.00E+00  0.00E+00  9.99E-06  9.35E-05  1.30E-03  0.95114
    308.   32.468  4.85E-07  4.60E-06  9.58E-06  9.08E-05  0.00E+00  0.00E+00  1.01E-05  9.54E-05  1.32E-03  0.95107
    310.   32.258  4.89E-07  4.70E-06  9.64E-06  9.27E-05  0.00E+00  0.00E+00  1.01E-05  9.74E-05  1.34E-03  0.95101
    312.   32.051  4.93E-07  4.80E-06  9.71E-06  9.45E-05  0.00E+00  0.00E+00  1.02E-05  9.93E-05  1.36E-03  0.95095
    314.   31.847  4.97E-07  4.90E-06  9.77E-06  9.64E-05  0.00E+00  0.00E+00  1.03E-05  1.01E-04  1.38E-03  0.95090
    316.   31.646  5.01E-07  5.00E-06  9.84E-06  9.83E-05  0.00E+00  0.00E+00  1.03E-05  1.03E-04  1.40E-03  0.95084
    318.   31.447  5.05E-07  5.11E-06  9.90E-06  1.00E-04  0.00E+00  0.00E+00  1.04E-05  1.05E-04  1.42E-03  0.95078
    320.   31.250  5.09E-07  5.21E-06  9.97E-06  1.02E-04  0.00E+00  0.00E+00  1.05E-05  1.07E-04  1.44E-03  0.95072
    322.   31.056  5.13E-07  5.31E-06  1.00E-05  1.04E-04  0.00E+00  0.00E+00  1.05E-05  1.09E-04  1.46E-03  0.95067
    324.   30.864  5.16E-07  5.42E-06  1.01E-05  1.06E-04  0.00E+00  0.00E+00  1.06E-05  1.11E-04  1.48E-03  0.95061
    326.   30.675  5.20E-07  5.53E-06  1.02E-05  1.08E-04  0.00E+00  0.00E+00  1.07E-05  1.14E-04  1.50E-03  0.95056
    328.   30.488  5.24E-07  5.64E-06  1.02E-05  1.10E-04  0.00E+00  0.00E+00  1.07E-05  1.16E-04  1.52E-03  0.95050
    330.   30.303  5.28E-07  5.75E-06  1.03E-05  1.12E-04  0.00E+00  0.00E+00  1.08E-05  1.18E-04  1.55E-03  0.95044
    332.   30.120  5.32E-07  5.86E-06  1.03E-05  1.14E-04  0.00E+00  0.00E+00  1.09E-05  1.20E-04  1.57E-03  0.95034
    334.   29.940  5.36E-07  5.98E-06  1.04E-05  1.16E-04  0.00E+00  0.00E+00  1.09E-05  1.22E-04  1.59E-03  0.95024
    336.   29.762  5.41E-07  6.11E-06  1.05E-05  1.18E-04  0.00E+00  0.00E+00  1.10E-05  1.24E-04  1.61E-03  0.95008
    338.   29.586  5.46E-07  6.24E-06  1.05E-05  1.20E-04  0.00E+00  0.00E+00  1.11E-05  1.27E-04  1.63E-03  0.94987
    340.   29.412  5.52E-07  6.38E-06  1.06E-05  1.22E-04  0.00E+00  0.00E+00  1.11E-05  1.29E-04  1.66E-03  0.94966
    342.   29.240  5.57E-07  6.52E-06  1.06E-05  1.24E-04  0.00E+00  0.00E+00  1.12E-05  1.31E-04  1.68E-03  0.94945
    344.   29.070  5.62E-07  6.66E-06  1.07E-05  1.27E-04  0.00E+00  0.00E+00  1.13E-05  1.33E-04  1.70E-03  0.94925
    346.   28.902  5.68E-07  6.80E-06  1.08E-05  1.29E-04  0.00E+00  0.00E+00  1.13E-05  1.36E-04  1.72E-03  0.94905
    348.   28.736  5.73E-07  6.94E-06  1.08E-05  1.31E-04  0.00E+00  0.00E+00  1.14E-05  1.38E-04  1.75E-03  0.94885
    350.   28.571  5.78E-07  7.08E-06  1.09E-05  1.33E-04  0.00E+00  0.00E+00  1.14E-05  1.40E-04  1.77E-03  0.94865
    352.   28.409  5.83E-07  7.23E-06  1.09E-05  1.35E-04  0.00E+00  0.00E+00  1.15E-05  1.43E-04  1.79E-03  0.94846
    354.   28.249  5.89E-07  7.38E-06  1.10E-05  1.38E-04  0.00E+00  0.00E+00  1.16E-05  1.45E-04  1.82E-03  0.94827
    356.   28.090  5.94E-07  7.52E-06  1.10E-05  1.40E-04  0.00E+00  0.00E+00  1.16E-05  1.47E-04  1.84E-03  0.94808
    358.   27.933  5.99E-07  7.68E-06  1.11E-05  1.42E-04  0.00E+00  0.00E+00  1.17E-05  1.50E-04  1.86E-03  0.94789
    360.   27.778  6.04E-07  7.83E-06  1.11E-05  1.44E-04  0.00E+00  0.00E+00  1.17E-05  1.52E-04  1.89E-03  0.94770
    362.   27.624  6.09E-07  7.98E-06  1.12E-05  1.47E-04  0.00E+00  0.00E+00  1.18E-05  1.55E-04  1.91E-03  0.94752
    364.   27.473  6.14E-07  8.14E-06  1.12E-05  1.49E-04  0.00E+00  0.00E+00  1.19E-05  1.57E-04  1.93E-03  0.94734
    366.   27.322  6.19E-07  8.29E-06  1.13E-05  1.51E-04  0.00E+00  0.00E+00  1.19E-05  1.60E-04  1.96E-03  0.94716
    368.   27.174  6.24E-07  8.45E-06  1.14E-05  1.54E-04  0.00E+00  0.00E+00  1.20E-05  1.62E-04  1.98E-03  0.94698
    370.   27.027  6.29E-07  8.61E-06  1.14E-05  1.56E-04  0.00E+00  0.00E+00  1.20E-05  1.65E-04  2.00E-03  0.94681
    372.   26.882  6.34E-07  8.77E-06  1.15E-05  1.59E-04  0.00E+00  0.00E+00  1.21E-05  1.67E-04  2.03E-03  0.94663
    374.   26.738  6.39E-07  8.93E-06  1.15E-05  1.61E-04  0.00E+00  0.00E+00  1.21E-05  1.70E-04  2.05E-03  0.94646
    376.   26.596  6.44E-07  9.10E-06  1.16E-05  1.63E-04  0.00E+00  0.00E+00  1.22E-05  1.72E-04  2.08E-03  0.94629
    378.   26.455  6.48E-07  9.26E-06  1.16E-05  1.66E-04  0.00E+00  0.00E+00  1.23E-05  1.75E-04  2.10E-03  0.94612
    380.   26.316  6.53E-07  9.43E-06  1.17E-05  1.68E-04  0.00E+00  0.00E+00  1.23E-05  1.78E-04  2.13E-03  0.94596
    382.   26.178  6.58E-07  9.60E-06  1.17E-05  1.71E-04  0.00E+00  0.00E+00  1.24E-05  1.80E-04  2.15E-03  0.94579
    384.   26.042  6.63E-07  9.77E-06  1.18E-05  1.73E-04  0.00E+00  0.00E+00  1.24E-05  1.83E-04  2.18E-03  0.94563
    386.   25.907  6.67E-07  9.94E-06  1.18E-05  1.76E-04  0.00E+00  0.00E+00  1.25E-05  1.86E-04  2.20E-03  0.94547
    388.   25.773  6.72E-07  1.01E-05  1.18E-05  1.78E-04  0.00E+00  0.00E+00  1.25E-05  1.88E-04  2.23E-03  0.94531
    390.   25.641  6.76E-07  1.03E-05  1.19E-05  1.81E-04  0.00E+00  0.00E+00  1.26E-05  1.91E-04  2.25E-03  0.94515
    392.   25.510  6.81E-07  1.05E-05  1.19E-05  1.83E-04  0.00E+00  0.00E+00  1.26E-05  1.94E-04  2.28E-03  0.94499
    394.   25.381  6.86E-07  1.06E-05  1.20E-05  1.86E-04  0.00E+00  0.00E+00  1.27E-05  1.97E-04  2.30E-03  0.94484
    396.   25.253  6.90E-07  1.08E-05  1.20E-05  1.89E-04  0.00E+00  0.00E+00  1.27E-05  1.99E-04  2.33E-03  0.94469
    398.   25.126  6.95E-07  1.10E-05  1.21E-05  1.91E-04  0.00E+00  0.00E+00  1.28E-05  2.02E-04  2.35E-03  0.94454
    400.   25.000  6.99E-07  1.12E-05  1.21E-05  1.94E-04  0.00E+00  0.00E+00  1.28E-05  2.05E-04  2.38E-03  0.94437
  iv          405
1                                             RADIANCE(WATTS/CM2-STER-XXX)
0  FREQ   WAVLEN    PATH THERMAL      SURFACE EMISSION    SURFACE REFLECTED     TOTAL RADIANCE   INTEGRAL    TOTAL
  (CM-1) (MICRN)    (CM-1)   (MICRN)    (CM-1)   (MICRN)    (CM-1)   (MICRN)    (CM-1)   (MICRN)    (CM-1)   TRANS

    402.   24.876  7.05E-07  1.14E-05  1.22E-05  1.96E-04  0.00E+00  0.00E+00  1.29E-05  2.08E-04  2.40E-03  0.94408
    404.   24.752  7.12E-07  1.16E-05  1.22E-05  1.99E-04  0.00E+00  0.00E+00  1.29E-05  2.11E-04  2.43E-03  0.94378
    406.   24.631  7.18E-07  1.18E-05  1.22E-05  2.02E-04  0.00E+00  0.00E+00  1.30E-05  2.14E-04  2.46E-03  0.94348
    408.   24.510  7.24E-07  1.21E-05  1.23E-05  2.04E-04  0.00E+00  0.00E+00  1.30E-05  2.16E-04  2.48E-03  0.94319
    410.   24.390  7.30E-07  1.23E-05  1.23E-05  2.07E-04  0.00E+00  0.00E+00  1.30E-05  2.19E-04  2.51E-03  0.94289
    412.   24.272  7.36E-07  1.25E-05  1.24E-05  2.10E-04  0.00E+00  0.00E+00  1.31E-05  2.22E-04  2.53E-03  0.94261
    414.   24.155  7.42E-07  1.27E-05  1.24E-05  2.12E-04  0.00E+00  0.00E+00  1.31E-05  2.25E-04  2.56E-03  0.94232
    416.   24.038  7.49E-07  1.30E-05  1.24E-05  2.15E-04  0.00E+00  0.00E+00  1.32E-05  2.28E-04  2.59E-03  0.94203
    418.   23.923  7.55E-07  1.32E-05  1.25E-05  2.18E-04  0.00E+00  0.00E+00  1.32E-05  2.31E-04  2.61E-03  0.94175
    420.   23.810  7.60E-07  1.34E-05  1.25E-05  2.21E-04  0.00E+00  0.00E+00  1.33E-05  2.34E-04  2.64E-03  0.94147
    422.   23.697  7.66E-07  1.36E-05  1.25E-05  2.23E-04  0.00E+00  0.00E+00  1.33E-05  2.37E-04  2.67E-03  0.94120
    424.   23.585  7.72E-07  1.39E-05  1.26E-05  2.26E-04  0.00E+00  0.00E+00  1.33E-05  2.40E-04  2.69E-03  0.94093
    426.   23.474  7.78E-07  1.41E-05  1.26E-05  2.29E-04  0.00E+00  0.00E+00  1.34E-05  2.43E-04  2.72E-03  0.94066
    428.   23.364  7.84E-07  1.44E-05  1.26E-05  2.32E-04  0.00E+00  0.00E+00  1.34E-05  2.46E-04  2.75E-03  0.94039
    430.   23.256  7.90E-07  1.46E-05  1.27E-05  2.34E-04  0.00E+00  0.00E+00  1.35E-05  2.49E-04  2.77E-03  0.94012
    432.   23.148  7.95E-07  1.48E-05  1.27E-05  2.37E-04  0.00E+00  0.00E+00  1.35E-05  2.52E-04  2.80E-03  0.93986
    434.   23.041  8.01E-07  1.51E-05  1.27E-05  2.40E-04  0.00E+00  0.00E+00  1.35E-05  2.55E-04  2.83E-03  0.93960
    436.   22.936  8.06E-07  1.53E-05  1.28E-05  2.43E-04  0.00E+00  0.00E+00  1.36E-05  2.58E-04  2.86E-03  0.93934
    438.   22.831  8.12E-07  1.56E-05  1.28E-05  2.46E-04  0.00E+00  0.00E+00  1.36E-05  2.61E-04  2.88E-03  0.93909
    440.   22.727  8.18E-07  1.58E-05  1.28E-05  2.49E-04  0.00E+00  0.00E+00  1.37E-05  2.64E-04  2.91E-03  0.93883
    442.   22.624  8.23E-07  1.61E-05  1.29E-05  2.52E-04  0.00E+00  0.00E+00  1.37E-05  2.68E-04  2.94E-03  0.93858
    444.   22.523  8.28E-07  1.63E-05  1.29E-05  2.54E-04  0.00E+00  0.00E+00  1.37E-05  2.71E-04  2.96E-03  0.93833
    446.   22.422  8.34E-07  1.66E-05  1.29E-05  2.57E-04  0.00E+00  0.00E+00  1.38E-05  2.74E-04  2.99E-03  0.93808
    448.   22.321  8.39E-07  1.68E-05  1.30E-05  2.60E-04  0.00E+00  0.00E+00  1.38E-05  2.77E-04  3.02E-03  0.93783
    450.   22.222  8.44E-07  1.71E-05  1.30E-05  2.63E-04  0.00E+00  0.00E+00  1.38E-05  2.80E-04  3.05E-03  0.93759
    452.   22.124  8.50E-07  1.74E-05  1.30E-05  2.66E-04  0.00E+00  0.00E+00  1.39E-05  2.83E-04  3.08E-03  0.93734
    454.   22.026  8.55E-07  1.76E-05  1.31E-05  2.69E-04  0.00E+00  0.00E+00  1.39E-05  2.87E-04  3.10E-03  0.93710
    456.   21.930  8.60E-07  1.79E-05  1.31E-05  2.72E-04  0.00E+00  0.00E+00  1.39E-05  2.90E-04  3.13E-03  0.93687
    458.   21.834  8.65E-07  1.81E-05  1.31E-05  2.75E-04  0.00E+00  0.00E+00  1.40E-05  2.93E-04  3.16E-03  0.93662
    460.   21.739  8.70E-07  1.84E-05  1.31E-05  2.78E-04  0.00E+00  0.00E+00  1.40E-05  2.96E-04  3.19E-03  0.93639
    462.   21.645  8.75E-07  1.87E-05  1.32E-05  2.81E-04  0.00E+00  0.00E+00  1.40E-05  3.00E-04  3.21E-03  0.93617
    464.   21.552  8.80E-07  1.89E-05  1.32E-05  2.84E-04  0.00E+00  0.00E+00  1.41E-05  3.03E-04  3.24E-03  0.93594
    466.   21.459  8.85E-07  1.92E-05  1.32E-05  2.87E-04  0.00E+00  0.00E+00  1.41E-05  3.06E-04  3.27E-03  0.93573
    468.   21.368  8.89E-07  1.95E-05  1.32E-05  2.90E-04  0.00E+00  0.00E+00  1.41E-05  3.09E-04  3.30E-03  0.93555
    470.   21.277  8.95E-07  1.98E-05  1.33E-05  2.93E-04  0.00E+00  0.00E+00  1.42E-05  3.13E-04  3.33E-03  0.93517
    472.   21.186  8.97E-07  2.00E-05  1.33E-05  2.96E-04  0.00E+00  0.00E+00  1.42E-05  3.16E-04  3.36E-03  0.93517
    474.   21.097  8.94E-07  2.01E-05  1.33E-05  2.99E-04  0.00E+00  0.00E+00  1.42E-05  3.19E-04  3.38E-03  0.93558
    476.   21.008  8.94E-07  2.03E-05  1.33E-05  3.02E-04  0.00E+00  0.00E+00  1.42E-05  3.23E-04  3.41E-03  0.93566
    478.   20.921  8.94E-07  2.04E-05  1.34E-05  3.05E-04  0.00E+00  0.00E+00  1.43E-05  3.26E-04  3.44E-03  0.93575
    480.   20.833  8.95E-07  2.06E-05  1.34E-05  3.09E-04  0.00E+00  0.00E+00  1.43E-05  3.29E-04  3.47E-03  0.93580
    482.   20.747  8.95E-07  2.08E-05  1.34E-05  3.12E-04  0.00E+00  0.00E+00  1.43E-05  3.33E-04  3.50E-03  0.93593
    484.   20.661  8.95E-07  2.10E-05  1.34E-05  3.15E-04  0.00E+00  0.00E+00  1.43E-05  3.36E-04  3.53E-03  0.93600
    486.   20.576  8.95E-07  2.11E-05  1.35E-05  3.18E-04  0.00E+00  0.00E+00  1.44E-05  3.39E-04  3.56E-03  0.93611
    488.   20.492  8.95E-07  2.13E-05  1.35E-05  3.21E-04  0.00E+00  0.00E+00  1.44E-05  3.43E-04  3.58E-03  0.93618
    490.   20.408  8.96E-07  2.15E-05  1.35E-05  3.25E-04  0.00E+00  0.00E+00  1.44E-05  3.46E-04  3.61E-03  0.93625
    492.   20.325  8.96E-07  2.17E-05  1.35E-05  3.28E-04  0.00E+00  0.00E+00  1.44E-05  3.49E-04  3.64E-03  0.93634
    494.   20.243  8.96E-07  2.19E-05  1.36E-05  3.31E-04  0.00E+00  0.00E+00  1.45E-05  3.53E-04  3.67E-03  0.93642
    496.   20.161  8.96E-07  2.20E-05  1.36E-05  3.34E-04  0.00E+00  0.00E+00  1.45E-05  3.56E-04  3.70E-03  0.93652
    498.   20.080  8.96E-07  2.22E-05  1.36E-05  3.37E-04  0.00E+00  0.00E+00  1.45E-05  3.60E-04  3.73E-03  0.93660
    500.   20.000  8.96E-07  2.24E-05  1.36E-05  3.41E-04  0.00E+00  0.00E+00  1.45E-05  3.63E-04  3.76E-03  0.93668
  iv          505
1                                             RADIANCE(WATTS/CM2-STER-XXX)
0  FREQ   WAVLEN    PATH THERMAL      SURFACE EMISSION    SURFACE REFLECTED     TOTAL RADIANCE   INTEGRAL    TOTAL
  (CM-1) (MICRN)    (CM-1)   (MICRN)    (CM-1)   (MICRN)    (CM-1)   (MICRN)    (CM-1)   (MICRN)    (CM-1)   TRANS

    502.   19.920  8.96E-07  2.26E-05  1.36E-05  3.44E-04  0.00E+00  0.00E+00  1.45E-05  3.67E-04  3.79E-03  0.93677
    504.   19.841  8.96E-07  2.28E-05  1.37E-05  3.47E-04  0.00E+00  0.00E+00  1.46E-05  3.70E-04  3.82E-03  0.93679
    506.   19.763  8.97E-07  2.30E-05  1.37E-05  3.50E-04  0.00E+00  0.00E+00  1.46E-05  3.73E-04  3.85E-03  0.93677
    508.   19.685  9.25E-07  2.39E-05  1.37E-05  3.53E-04  0.00E+00  0.00E+00  1.46E-05  3.77E-04  3.88E-03  0.93469
    510.   19.608  9.13E-07  2.37E-05  1.37E-05  3.56E-04  0.00E+00  0.00E+00  1.46E-05  3.80E-04  3.90E-03  0.93570
    512.   19.531  9.09E-07  2.38E-05  1.37E-05  3.60E-04  0.00E+00  0.00E+00  1.46E-05  3.84E-04  3.93E-03  0.93605
    514.   19.455  9.15E-07  2.42E-05  1.37E-05  3.63E-04  0.00E+00  0.00E+00  1.47E-05  3.87E-04  3.96E-03  0.93560
    516.   19.380  9.15E-07  2.44E-05  1.38E-05  3.66E-04  0.00E+00  0.00E+00  1.47E-05  3.91E-04  3.99E-03  0.93570
    518.   19.305  9.31E-07  2.50E-05  1.38E-05  3.69E-04  0.00E+00  0.00E+00  1.47E-05  3.94E-04  4.02E-03  0.93443
    520.   19.231  9.45E-07  2.55E-05  1.38E-05  3.72E-04  0.00E+00  0.00E+00  1.47E-05  3.97E-04  4.05E-03  0.93340
    522.   19.157  9.39E-07  2.56E-05  1.38E-05  3.75E-04  0.00E+00  0.00E+00  1.47E-05  4.01E-04  4.08E-03  0.93389
    524.   19.084  9.68E-07  2.66E-05  1.38E-05  3.78E-04  0.00E+00  0.00E+00  1.47E-05  4.04E-04  4.11E-03  0.93156
    526.   19.011  9.87E-07  2.73E-05  1.37E-05  3.80E-04  0.00E+00  0.00E+00  1.47E-05  4.08E-04  4.14E-03  0.93001
    528.   18.939  9.71E-07  2.71E-05  1.38E-05  3.84E-04  0.00E+00  0.00E+00  1.47E-05  4.11E-04  4.17E-03  0.93138
    530.   18.868  1.00E-06  2.81E-05  1.38E-05  3.86E-04  0.00E+00  0.00E+00  1.48E-05  4.14E-04  4.20E-03  0.92887
    532.   18.797  1.00E-06  2.84E-05  1.38E-05  3.90E-04  0.00E+00  0.00E+00  1.48E-05  4.18E-04  4.23E-03  0.92881
    534.   18.727  9.69E-07  2.76E-05  1.38E-05  3.94E-04  0.00E+00  0.00E+00  1.48E-05  4.22E-04  4.26E-03  0.93164
    536.   18.657  9.73E-07  2.79E-05  1.38E-05  3.97E-04  0.00E+00  0.00E+00  1.48E-05  4.25E-04  4.29E-03  0.93134
    538.   18.587  9.78E-07  2.83E-05  1.38E-05  4.00E-04  0.00E+00  0.00E+00  1.48E-05  4.29E-04  4.32E-03  0.93089
    540.   18.519  9.50E-07  2.77E-05  1.39E-05  4.05E-04  0.00E+00  0.00E+00  1.48E-05  4.32E-04  4.35E-03  0.93327
    542.   18.450  9.41E-07  2.76E-05  1.39E-05  4.08E-04  0.00E+00  0.00E+00  1.48E-05  4.36E-04  4.38E-03  0.93427
    544.   18.382  2.02E-06  5.99E-05  1.26E-05  3.72E-04  0.00E+00  0.00E+00  1.46E-05  4.32E-04  4.41E-03  0.84426
    546.   18.315  1.96E-06  5.84E-05  1.27E-05  3.78E-04  0.00E+00  0.00E+00  1.46E-05  4.36E-04  4.43E-03  0.85114
    548.   18.248  1.11E-06  3.34E-05  1.37E-05  4.12E-04  0.00E+00  0.00E+00  1.48E-05  4.46E-04  4.46E-03  0.92100
    550.   18.182  1.08E-06  3.27E-05  1.38E-05  4.17E-04  0.00E+00  0.00E+00  1.49E-05  4.49E-04  4.49E-03  0.92333
    552.   18.116  1.08E-06  3.30E-05  1.38E-05  4.20E-04  0.00E+00  0.00E+00  1.49E-05  4.53E-04  4.52E-03  0.92329
    554.   18.051  1.12E-06  3.43E-05  1.37E-05  4.22E-04  0.00E+00  0.00E+00  1.49E-05  4.56E-04  4.55E-03  0.92083
    556.   17.986  1.21E-06  3.73E-05  1.36E-05  4.22E-04  0.00E+00  0.00E+00  1.49E-05  4.59E-04  4.58E-03  0.91366
    558.   17.921  1.26E-06  3.94E-05  1.36E-05  4.23E-04  0.00E+00  0.00E+00  1.49E-05  4.62E-04  4.61E-03  0.90926
    560.   17.857  1.26E-06  3.96E-05  1.36E-05  4.27E-04  0.00E+00  0.00E+00  1.49E-05  4.66E-04  4.64E-03  0.90980
    562.   17.794  1.34E-06  4.22E-05  1.35E-05  4.27E-04  0.00E+00  0.00E+00  1.49E-05  4.69E-04  4.67E-03  0.90397
    564.   17.730  1.50E-06  4.76E-05  1.33E-05  4.24E-04  0.00E+00  0.00E+00  1.48E-05  4.72E-04  4.70E-03  0.89112
    566.   17.668  1.62E-06  5.18E-05  1.32E-05  4.23E-04  0.00E+00  0.00E+00  1.48E-05  4.75E-04  4.73E-03  0.88159
    568.   17.606  1.79E-06  5.77E-05  1.30E-05  4.19E-04  0.00E+00  0.00E+00  1.48E-05  4.77E-04  4.76E-03  0.86798
    570.   17.544  2.06E-06  6.69E-05  1.27E-05  4.12E-04  0.00E+00  0.00E+00  1.47E-05  4.78E-04  4.79E-03  0.84578
    572.   17.483  2.27E-06  7.44E-05  1.24E-05  4.06E-04  0.00E+00  0.00E+00  1.47E-05  4.80E-04  4.82E-03  0.82781
    574.   17.422  2.67E-06  8.81E-05  1.19E-05  3.92E-04  0.00E+00  0.00E+00  1.46E-05  4.80E-04  4.85E-03  0.79477
    576.   17.361  3.24E-06  1.08E-04  1.12E-05  3.71E-04  0.00E+00  0.00E+00  1.44E-05  4.78E-04  4.88E-03  0.74581
    578.   17.301  3.88E-06  1.30E-04  1.03E-05  3.45E-04  0.00E+00  0.00E+00  1.42E-05  4.75E-04  4.91E-03  0.68882
    580.   17.241  4.23E-06  1.42E-04  9.87E-06  3.32E-04  0.00E+00  0.00E+00  1.41E-05  4.74E-04  4.93E-03  0.65846
    582.   17.182  5.15E-06  1.74E-04  8.66E-06  2.93E-04  0.00E+00  0.00E+00  1.38E-05  4.68E-04  4.96E-03  0.57775
    584.   17.123  5.37E-06  1.83E-04  8.16E-06  2.78E-04  0.00E+00  0.00E+00  1.35E-05  4.61E-04  4.99E-03  0.54430
    586.   17.065  6.27E-06  2.15E-04  6.68E-06  2.29E-04  0.00E+00  0.00E+00  1.30E-05  4.45E-04  5.02E-03  0.44526
    588.   17.007  5.91E-06  2.04E-04  7.22E-06  2.49E-04  0.00E+00  0.00E+00  1.31E-05  4.54E-04  5.04E-03  0.48126
    590.   16.949  6.71E-06  2.34E-04  5.65E-06  1.97E-04  0.00E+00  0.00E+00  1.24E-05  4.30E-04  5.07E-03  0.37683
    592.   16.892  6.59E-06  2.31E-04  5.96E-06  2.09E-04  0.00E+00  0.00E+00  1.25E-05  4.40E-04  5.09E-03  0.39750
    594.   16.835  7.82E-06  2.76E-04  3.51E-06  1.24E-04  0.00E+00  0.00E+00  1.13E-05  4.00E-04  5.11E-03  0.23426
    596.   16.779  8.37E-06  2.97E-04  2.05E-06  7.27E-05  0.00E+00  0.00E+00  1.04E-05  3.70E-04  5.13E-03  0.13652
    598.   16.722  7.79E-06  2.79E-04  2.42E-06  8.64E-05  0.00E+00  0.00E+00  1.02E-05  3.65E-04  5.16E-03  0.16114
    600.   16.667  7.50E-06  2.70E-04  4.02E-06  1.45E-04  0.00E+00  0.00E+00  1.15E-05  4.15E-04  5.18E-03  0.26845
  iv          605
1                                             RADIANCE(WATTS/CM2-STER-XXX)
0  FREQ   WAVLEN    PATH THERMAL      SURFACE EMISSION    SURFACE REFLECTED     TOTAL RADIANCE   INTEGRAL    TOTAL
  (CM-1) (MICRN)    (CM-1)   (MICRN)    (CM-1)   (MICRN)    (CM-1)   (MICRN)    (CM-1)   (MICRN)    (CM-1)   TRANS

    602.   16.611  7.51E-06  2.72E-04  3.20E-06  1.16E-04  0.00E+00  0.00E+00  1.07E-05  3.88E-04  5.20E-03  0.21345
    604.   16.556  8.19E-06  2.99E-04  2.72E-06  9.92E-05  0.00E+00  0.00E+00  1.09E-05  3.98E-04  5.22E-03  0.18158
    606.   16.502  8.10E-06  2.97E-04  1.63E-06  6.00E-05  0.00E+00  0.00E+00  9.73E-06  3.57E-04  5.24E-03  0.10904
    608.   16.447  8.07E-06  2.98E-04  1.62E-06  6.00E-05  0.00E+00  0.00E+00  9.69E-06  3.58E-04  5.26E-03  0.10837
    610.   16.393  8.32E-06  3.10E-04  2.06E-06  7.67E-05  0.00E+00  0.00E+00  1.04E-05  3.86E-04  5.28E-03  0.13774
    612.   16.340  7.93E-06  2.97E-04  2.67E-06  1.00E-04  0.00E+00  0.00E+00  1.06E-05  3.97E-04  5.30E-03  0.17852
    614.   16.287  8.39E-06  3.16E-04  1.09E-06  4.11E-05  0.00E+00  0.00E+00  9.48E-06  3.57E-04  5.32E-03  0.07284
    616.   16.234  6.97E-06  2.64E-04  2.43E-07  9.21E-06  0.00E+00  0.00E+00  7.21E-06  2.74E-04  5.34E-03  0.01623
    618.   16.181  5.08E-06  1.94E-04  2.98E-08  1.14E-06  0.00E+00  0.00E+00  5.11E-06  1.95E-04  5.35E-03  0.00199
    620.   16.129  8.48E-06  3.26E-04  1.12E-06  4.29E-05  0.00E+00  0.00E+00  9.60E-06  3.69E-04  5.36E-03  0.07472
    622.   16.077  8.10E-06  3.14E-04  7.86E-07  3.04E-05  0.00E+00  0.00E+00  8.89E-06  3.44E-04  5.38E-03  0.05262
    624.   16.026  7.38E-06  2.87E-04  4.14E-07  1.61E-05  0.00E+00  0.00E+00  7.79E-06  3.03E-04  5.40E-03  0.02775
    626.   15.974  7.36E-06  2.89E-04  2.74E-07  1.07E-05  0.00E+00  0.00E+00  7.64E-06  2.99E-04  5.41E-03  0.01838
    628.   15.924  6.46E-06  2.55E-04  4.88E-08  1.92E-06  0.00E+00  0.00E+00  6.51E-06  2.57E-04  5.43E-03  0.00327
    630.   15.873  6.18E-06  2.45E-04  2.81E-08  1.12E-06  0.00E+00  0.00E+00  6.21E-06  2.46E-04  5.44E-03  0.00189
    632.   15.823  5.81E-06  2.32E-04  9.00E-09  3.59E-07  0.00E+00  0.00E+00  5.82E-06  2.33E-04  5.45E-03  0.00060
    634.   15.773  5.39E-06  2.16E-04  2.47E-09  9.94E-08  0.00E+00  0.00E+00  5.39E-06  2.17E-04  5.46E-03  0.00017
    636.   15.723  5.02E-06  2.03E-04  2.64E-10  1.07E-08  0.00E+00  0.00E+00  5.02E-06  2.03E-04  5.47E-03  0.00002
    638.   15.674  4.54E-06  1.85E-04  1.18E-10  4.81E-09  0.00E+00  0.00E+00  4.54E-06  1.85E-04  5.48E-03  0.00001
    640.   15.625  4.30E-06  1.76E-04  6.41E-12  2.63E-10  0.00E+00  0.00E+00  4.30E-06  1.76E-04  5.49E-03  0.00000
    642.   15.576  4.10E-06  1.69E-04  7.99E-13  3.29E-11  0.00E+00  0.00E+00  4.10E-06  1.69E-04  5.50E-03  0.00000
    644.   15.528  3.72E-06  1.54E-04  3.01E-14  1.25E-12  0.00E+00  0.00E+00  3.72E-06  1.54E-04  5.50E-03  0.00000
    646.   15.480  3.60E-06  1.50E-04  3.01E-16  1.26E-14  0.00E+00  0.00E+00  3.60E-06  1.50E-04  5.51E-03  0.00000
    648.   15.432  3.40E-06  1.43E-04  9.22E-19  3.87E-17  0.00E+00  0.00E+00  3.40E-06  1.43E-04  5.52E-03  0.00000
    650.   15.385  3.33E-06  1.41E-04  1.93E-22  8.17E-21  0.00E+00  0.00E+00  3.33E-06  1.41E-04  5.53E-03  0.00000
    652.   15.337  3.33E-06  1.41E-04  3.89E-18  1.65E-16  0.00E+00  0.00E+00  3.33E-06  1.41E-04  5.53E-03  0.00000
    654.   15.291  3.28E-06  1.40E-04  1.63E-16  6.99E-15  0.00E+00  0.00E+00  3.28E-06  1.40E-04  5.54E-03  0.00000
    656.   15.244  3.31E-06  1.43E-04  1.65E-16  7.12E-15  0.00E+00  0.00E+00  3.31E-06  1.43E-04  5.55E-03  0.00000
    658.   15.198  3.24E-06  1.40E-04  8.17E-18  3.54E-16  0.00E+00  0.00E+00  3.24E-06  1.40E-04  5.55E-03  0.00000
    660.   15.152  3.23E-06  1.41E-04  5.20E-17  2.26E-15  0.00E+00  0.00E+00  3.23E-06  1.41E-04  5.56E-03  0.00000
    662.   15.106  3.18E-06  1.40E-04  3.90E-17  1.71E-15  0.00E+00  0.00E+00  3.18E-06  1.40E-04  5.56E-03  0.00000
    664.   15.060  3.17E-06  1.40E-04  4.73E-23  2.09E-21  0.00E+00  0.00E+00  3.17E-06  1.40E-04  5.57E-03  0.00000
    666.   15.015  3.13E-06  1.39E-04  6.27E-35  2.78E-33  0.00E+00  0.00E+00  3.13E-06  1.39E-04  5.58E-03  0.00000
    668.   14.970  3.33E-06  1.49E-04  0.00E+00  0.00E+00  0.00E+00  0.00E+00  3.33E-06  1.49E-04  5.58E-03  0.00000
    670.   14.925  3.15E-06  1.41E-04  1.28E-33  5.77E-32  0.00E+00  0.00E+00  3.15E-06  1.41E-04  5.59E-03  0.00000
    672.   14.881  3.06E-06  1.38E-04  3.71E-21  1.67E-19  0.00E+00  0.00E+00  3.06E-06  1.38E-04  5.60E-03  0.00000
    674.   14.837  3.10E-06  1.41E-04  3.43E-19  1.56E-17  0.00E+00  0.00E+00  3.10E-06  1.41E-04  5.60E-03  0.00000
    676.   14.793  3.06E-06  1.40E-04  5.78E-18  2.64E-16  0.00E+00  0.00E+00  3.06E-06  1.40E-04  5.61E-03  0.00000
    678.   14.749  3.04E-06  1.40E-04  7.80E-20  3.58E-18  0.00E+00  0.00E+00  3.04E-06  1.40E-04  5.61E-03  0.00000
    680.   14.706  3.00E-06  1.39E-04  9.45E-20  4.37E-18  0.00E+00  0.00E+00  3.00E-06  1.39E-04  5.62E-03  0.00000
    682.   14.663  3.03E-06  1.41E-04  1.54E-19  7.15E-18  0.00E+00  0.00E+00  3.03E-06  1.41E-04  5.63E-03  0.00000
    684.   14.620  3.08E-06  1.44E-04  8.93E-18  4.18E-16  0.00E+00  0.00E+00  3.08E-06  1.44E-04  5.63E-03  0.00000
    686.   14.577  3.13E-06  1.47E-04  1.26E-16  5.94E-15  0.00E+00  0.00E+00  3.13E-06  1.47E-04  5.64E-03  0.00000
    688.   14.535  3.12E-06  1.48E-04  1.94E-17  9.17E-16  0.00E+00  0.00E+00  3.12E-06  1.48E-04  5.65E-03  0.00000
    690.   14.493  3.22E-06  1.53E-04  4.46E-17  2.12E-15  0.00E+00  0.00E+00  3.22E-06  1.53E-04  5.65E-03  0.00000
    692.   14.451  3.63E-06  1.74E-04  2.69E-14  1.29E-12  0.00E+00  0.00E+00  3.63E-06  1.74E-04  5.66E-03  0.00000
    694.   14.409  3.76E-06  1.81E-04  4.53E-13  2.18E-11  0.00E+00  0.00E+00  3.76E-06  1.81E-04  5.67E-03  0.00000
    696.   14.368  3.90E-06  1.89E-04  1.68E-12  8.15E-11  0.00E+00  0.00E+00  3.90E-06  1.89E-04  5.67E-03  0.00000
    698.   14.327  4.27E-06  2.08E-04  2.71E-11  1.32E-09  0.00E+00  0.00E+00  4.27E-06  2.08E-04  5.68E-03  0.00000
    700.   14.286  4.91E-06  2.41E-04  8.10E-10  3.97E-08  0.00E+00  0.00E+00  4.91E-06  2.41E-04  5.69E-03  0.00006
  iv          705
1                                             RADIANCE(WATTS/CM2-STER-XXX)
0  FREQ   WAVLEN    PATH THERMAL      SURFACE EMISSION    SURFACE REFLECTED     TOTAL RADIANCE   INTEGRAL    TOTAL
  (CM-1) (MICRN)    (CM-1)   (MICRN)    (CM-1)   (MICRN)    (CM-1)   (MICRN)    (CM-1)   (MICRN)    (CM-1)   TRANS

    702.   14.245  4.66E-06  2.30E-04  6.41E-10  3.16E-08  0.00E+00  0.00E+00  4.66E-06  2.30E-04  5.70E-03  0.00004
    704.   14.205  5.40E-06  2.68E-04  6.38E-09  3.16E-07  0.00E+00  0.00E+00  5.41E-06  2.68E-04  5.71E-03  0.00044
    706.   14.164  6.19E-06  3.08E-04  4.16E-08  2.07E-06  0.00E+00  0.00E+00  6.23E-06  3.10E-04  5.73E-03  0.00290
    708.   14.124  6.26E-06  3.14E-04  6.01E-08  3.01E-06  0.00E+00  0.00E+00  6.32E-06  3.17E-04  5.74E-03  0.00420
    710.   14.085  6.56E-06  3.30E-04  1.23E-07  6.22E-06  0.00E+00  0.00E+00  6.68E-06  3.37E-04  5.75E-03  0.00863
    712.   14.045  6.94E-06  3.52E-04  3.38E-07  1.71E-05  0.00E+00  0.00E+00  7.28E-06  3.69E-04  5.77E-03  0.02367
    714.   14.006  7.19E-06  3.67E-04  4.93E-07  2.51E-05  0.00E+00  0.00E+00  7.69E-06  3.92E-04  5.78E-03  0.03456
    716.   13.966  7.64E-06  3.91E-04  6.48E-07  3.32E-05  0.00E+00  0.00E+00  8.28E-06  4.25E-04  5.80E-03  0.04552
    718.   13.928  6.58E-06  3.39E-04  1.84E-07  9.50E-06  0.00E+00  0.00E+00  6.76E-06  3.49E-04  5.81E-03  0.01297
    720.   13.889  3.72E-06  1.93E-04  2.28E-10  1.18E-08  0.00E+00  0.00E+00  3.72E-06  1.93E-04  5.82E-03  0.00002
    722.   13.850  6.79E-06  3.54E-04  9.88E-07  5.15E-05  0.00E+00  0.00E+00  7.78E-06  4.05E-04  5.83E-03  0.06980
    724.   13.812  7.41E-06  3.88E-04  1.96E-06  1.03E-04  0.00E+00  0.00E+00  9.37E-06  4.91E-04  5.85E-03  0.13854
    726.   13.774  6.72E-06  3.54E-04  3.57E-06  1.88E-04  0.00E+00  0.00E+00  1.03E-05  5.42E-04  5.87E-03  0.25282
    728.   13.736  7.17E-06  3.80E-04  2.67E-06  1.42E-04  0.00E+00  0.00E+00  9.84E-06  5.22E-04  5.89E-03  0.18961
    730.   13.699  7.04E-06  3.75E-04  1.94E-06  1.04E-04  0.00E+00  0.00E+00  8.98E-06  4.79E-04  5.91E-03  0.13821
    732.   13.661  7.04E-06  3.77E-04  1.69E-06  9.05E-05  0.00E+00  0.00E+00  8.73E-06  4.68E-04  5.93E-03  0.12026
    734.   13.624  7.30E-06  3.93E-04  2.26E-06  1.22E-04  0.00E+00  0.00E+00  9.56E-06  5.15E-04  5.95E-03  0.16096
    736.   13.587  7.03E-06  3.81E-04  1.90E-06  1.03E-04  0.00E+00  0.00E+00  8.93E-06  4.84E-04  5.97E-03  0.13565
    738.   13.550  7.13E-06  3.88E-04  1.57E-06  8.56E-05  0.00E+00  0.00E+00  8.70E-06  4.74E-04  5.98E-03  0.11240
    740.   13.514  7.44E-06  4.08E-04  1.52E-06  8.31E-05  0.00E+00  0.00E+00  8.96E-06  4.91E-04  6.00E-03  0.10880
    742.   13.477  6.36E-06  3.50E-04  1.59E-06  8.77E-05  0.00E+00  0.00E+00  7.95E-06  4.38E-04  6.02E-03  0.11445
    744.   13.441  6.42E-06  3.55E-04  3.94E-06  2.18E-04  0.00E+00  0.00E+00  1.04E-05  5.73E-04  6.04E-03  0.28317
    746.   13.405  5.87E-06  3.27E-04  5.37E-06  2.99E-04  0.00E+00  0.00E+00  1.12E-05  6.26E-04  6.06E-03  0.38722
    748.   13.369  5.84E-06  3.27E-04  5.08E-06  2.84E-04  0.00E+00  0.00E+00  1.09E-05  6.11E-04  6.08E-03  0.36661
    750.   13.333  5.81E-06  3.27E-04  5.32E-06  2.99E-04  0.00E+00  0.00E+00  1.11E-05  6.26E-04  6.10E-03  0.38498
    752.   13.298  4.88E-06  2.76E-04  7.08E-06  4.00E-04  0.00E+00  0.00E+00  1.20E-05  6.76E-04  6.13E-03  0.51296
    754.   13.263  5.25E-06  2.99E-04  6.48E-06  3.69E-04  0.00E+00  0.00E+00  1.17E-05  6.67E-04  6.15E-03  0.47086
    756.   13.228  5.24E-06  2.99E-04  6.72E-06  3.84E-04  0.00E+00  0.00E+00  1.20E-05  6.83E-04  6.18E-03  0.48883
    758.   13.193  3.97E-06  2.28E-04  8.59E-06  4.94E-04  0.00E+00  0.00E+00  1.26E-05  7.22E-04  6.20E-03  0.62646
    760.   13.158  3.51E-06  2.03E-04  9.18E-06  5.30E-04  0.00E+00  0.00E+00  1.27E-05  7.33E-04  6.23E-03  0.67044
    762.   13.123  3.01E-06  1.75E-04  9.90E-06  5.75E-04  0.00E+00  0.00E+00  1.29E-05  7.50E-04  6.25E-03  0.72460
    764.   13.089  2.18E-06  1.27E-04  1.10E-05  6.43E-04  0.00E+00  0.00E+00  1.32E-05  7.70E-04  6.28E-03  0.80734
    766.   13.055  2.28E-06  1.34E-04  1.09E-05  6.37E-04  0.00E+00  0.00E+00  1.31E-05  7.71E-04  6.30E-03  0.79813
    768.   13.021  1.92E-06  1.13E-04  1.13E-05  6.67E-04  0.00E+00  0.00E+00  1.32E-05  7.81E-04  6.33E-03  0.83298
    770.   12.987  1.67E-06  9.90E-05  1.16E-05  6.89E-04  0.00E+00  0.00E+00  1.33E-05  7.87E-04  6.36E-03  0.85671
    772.   12.953  1.48E-06  8.81E-05  1.18E-05  7.05E-04  0.00E+00  0.00E+00  1.33E-05  7.93E-04  6.38E-03  0.87458
    774.   12.920  1.41E-06  8.45E-05  1.19E-05  7.12E-04  0.00E+00  0.00E+00  1.33E-05  7.96E-04  6.41E-03  0.88027
    776.   12.887  1.29E-06  7.76E-05  1.20E-05  7.23E-04  0.00E+00  0.00E+00  1.33E-05  8.01E-04  6.44E-03  0.89123
    778.   12.853  1.15E-06  6.94E-05  1.22E-05  7.36E-04  0.00E+00  0.00E+00  1.33E-05  8.05E-04  6.46E-03  0.90461
    780.   12.821  1.11E-06  6.75E-05  1.22E-05  7.41E-04  0.00E+00  0.00E+00  1.33E-05  8.08E-04  6.49E-03  0.90773
    782.   12.788  1.12E-06  6.85E-05  1.21E-05  7.42E-04  0.00E+00  0.00E+00  1.32E-05  8.10E-04  6.52E-03  0.90613
    784.   12.755  1.05E-06  6.46E-05  1.22E-05  7.49E-04  0.00E+00  0.00E+00  1.32E-05  8.14E-04  6.54E-03  0.91243
    786.   12.723  9.64E-07  5.96E-05  1.23E-05  7.58E-04  0.00E+00  0.00E+00  1.32E-05  8.18E-04  6.57E-03  0.92095
    788.   12.690  9.39E-07  5.83E-05  1.23E-05  7.62E-04  0.00E+00  0.00E+00  1.32E-05  8.20E-04  6.60E-03  0.92312
    790.   12.658  1.19E-06  7.44E-05  1.19E-05  7.44E-04  0.00E+00  0.00E+00  1.31E-05  8.18E-04  6.62E-03  0.89792
    792.   12.626  3.49E-06  2.19E-04  8.65E-06  5.42E-04  0.00E+00  0.00E+00  1.21E-05  7.61E-04  6.65E-03  0.65327
    794.   12.594  1.23E-06  7.79E-05  1.18E-05  7.44E-04  0.00E+00  0.00E+00  1.30E-05  8.22E-04  6.67E-03  0.89397
    796.   12.563  9.61E-07  6.09E-05  1.21E-05  7.68E-04  0.00E+00  0.00E+00  1.31E-05  8.29E-04  6.70E-03  0.92003
    798.   12.531  1.04E-06  6.59E-05  1.20E-05  7.64E-04  0.00E+00  0.00E+00  1.30E-05  8.29E-04  6.73E-03  0.91194
    800.   12.500  9.96E-07  6.38E-05  1.20E-05  7.69E-04  0.00E+00  0.00E+00  1.30E-05  8.33E-04  6.75E-03  0.91585
  iv          805
1                                             RADIANCE(WATTS/CM2-STER-XXX)
0  FREQ   WAVLEN    PATH THERMAL      SURFACE EMISSION    SURFACE REFLECTED     TOTAL RADIANCE   INTEGRAL    TOTAL
  (CM-1) (MICRN)    (CM-1)   (MICRN)    (CM-1)   (MICRN)    (CM-1)   (MICRN)    (CM-1)   (MICRN)    (CM-1)   TRANS

    802.   12.469  1.09E-06  7.02E-05  1.19E-05  7.63E-04  0.00E+00  0.00E+00  1.29E-05  8.33E-04  6.78E-03  0.90586
    804.   12.438  1.02E-06  6.60E-05  1.19E-05  7.71E-04  0.00E+00  0.00E+00  1.29E-05  8.37E-04  6.80E-03  0.91317
    806.   12.407  1.09E-06  7.08E-05  1.18E-05  7.66E-04  0.00E+00  0.00E+00  1.29E-05  8.37E-04  6.83E-03  0.90575
    808.   12.376  1.07E-06  6.97E-05  1.18E-05  7.70E-04  0.00E+00  0.00E+00  1.29E-05  8.40E-04  6.85E-03  0.90793
    810.   12.346  9.81E-07  6.44E-05  1.19E-05  7.80E-04  0.00E+00  0.00E+00  1.29E-05  8.44E-04  6.88E-03  0.91682
    812.   12.315  1.01E-06  6.68E-05  1.18E-05  7.79E-04  0.00E+00  0.00E+00  1.28E-05  8.46E-04  6.91E-03  0.91327
    814.   12.285  9.37E-07  6.21E-05  1.19E-05  7.87E-04  0.00E+00  0.00E+00  1.28E-05  8.50E-04  6.93E-03  0.92111
    816.   12.255  9.55E-07  6.36E-05  1.18E-05  7.88E-04  0.00E+00  0.00E+00  1.28E-05  8.51E-04  6.96E-03  0.91913
    818.   12.225  8.98E-07  6.01E-05  1.19E-05  7.95E-04  0.00E+00  0.00E+00  1.28E-05  8.55E-04  6.98E-03  0.92485
    820.   12.195  9.04E-07  6.08E-05  1.18E-05  7.96E-04  0.00E+00  0.00E+00  1.27E-05  8.57E-04  7.01E-03  0.92401
    822.   12.165  8.76E-07  5.92E-05  1.18E-05  8.00E-04  0.00E+00  0.00E+00  1.27E-05  8.59E-04  7.03E-03  0.92667
    824.   12.136  8.49E-07  5.77E-05  1.18E-05  8.04E-04  0.00E+00  0.00E+00  1.27E-05  8.62E-04  7.06E-03  0.92923
    826.   12.107  8.41E-07  5.74E-05  1.18E-05  8.07E-04  0.00E+00  0.00E+00  1.27E-05  8.64E-04  7.08E-03  0.92992
    828.   12.077  9.05E-07  6.21E-05  1.17E-05  8.03E-04  0.00E+00  0.00E+00  1.26E-05  8.65E-04  7.11E-03  0.92337
    830.   12.048  8.51E-07  5.87E-05  1.17E-05  8.09E-04  0.00E+00  0.00E+00  1.26E-05  8.68E-04  7.13E-03  0.92857
    832.   12.019  8.31E-07  5.75E-05  1.17E-05  8.12E-04  0.00E+00  0.00E+00  1.26E-05  8.70E-04  7.16E-03  0.93041
    834.   11.990  8.31E-07  5.78E-05  1.17E-05  8.14E-04  0.00E+00  0.00E+00  1.25E-05  8.72E-04  7.19E-03  0.93026
    836.   11.962  8.29E-07  5.79E-05  1.17E-05  8.16E-04  0.00E+00  0.00E+00  1.25E-05  8.74E-04  7.21E-03  0.93024
    838.   11.933  8.30E-07  5.83E-05  1.16E-05  8.17E-04  0.00E+00  0.00E+00  1.25E-05  8.76E-04  7.23E-03  0.92997
    840.   11.905  8.28E-07  5.84E-05  1.16E-05  8.19E-04  0.00E+00  0.00E+00  1.24E-05  8.78E-04  7.26E-03  0.92994
    842.   11.876  8.29E-07  5.88E-05  1.16E-05  8.21E-04  0.00E+00  0.00E+00  1.24E-05  8.79E-04  7.28E-03  0.92968
    844.   11.848  8.29E-07  5.91E-05  1.15E-05  8.22E-04  0.00E+00  0.00E+00  1.24E-05  8.81E-04  7.31E-03  0.92946
    846.   11.820  8.30E-07  5.94E-05  1.15E-05  8.24E-04  0.00E+00  0.00E+00  1.23E-05  8.83E-04  7.33E-03  0.92924
    848.   11.792  8.29E-07  5.96E-05  1.15E-05  8.25E-04  0.00E+00  0.00E+00  1.23E-05  8.85E-04  7.36E-03  0.92912
    850.   11.765  8.28E-07  5.99E-05  1.14E-05  8.27E-04  0.00E+00  0.00E+00  1.23E-05  8.87E-04  7.38E-03  0.92898
    852.   11.737  8.29E-07  6.02E-05  1.14E-05  8.28E-04  0.00E+00  0.00E+00  1.22E-05  8.88E-04  7.41E-03  0.92876
    854.   11.710  8.28E-07  6.04E-05  1.14E-05  8.30E-04  0.00E+00  0.00E+00  1.22E-05  8.90E-04  7.43E-03  0.92863
    856.   11.682  8.29E-07  6.08E-05  1.13E-05  8.31E-04  0.00E+00  0.00E+00  1.22E-05  8.92E-04  7.46E-03  0.92832
    858.   11.655  8.29E-07  6.10E-05  1.13E-05  8.33E-04  0.00E+00  0.00E+00  1.21E-05  8.94E-04  7.48E-03  0.92815
    860.   11.628  8.28E-07  6.12E-05  1.13E-05  8.34E-04  0.00E+00  0.00E+00  1.21E-05  8.95E-04  7.50E-03  0.92808
    862.   11.601  8.29E-07  6.16E-05  1.12E-05  8.35E-04  0.00E+00  0.00E+00  1.21E-05  8.97E-04  7.53E-03  0.92772
    864.   11.574  8.44E-07  6.30E-05  1.12E-05  8.35E-04  0.00E+00  0.00E+00  1.20E-05  8.98E-04  7.55E-03  0.92591
    866.   11.547  8.30E-07  6.22E-05  1.12E-05  8.38E-04  0.00E+00  0.00E+00  1.20E-05  9.00E-04  7.58E-03  0.92722
    868.   11.521  8.28E-07  6.24E-05  1.11E-05  8.39E-04  0.00E+00  0.00E+00  1.20E-05  9.02E-04  7.60E-03  0.92722
    870.   11.494  8.28E-07  6.27E-05  1.11E-05  8.41E-04  0.00E+00  0.00E+00  1.19E-05  9.03E-04  7.62E-03  0.92699
    872.   11.468  8.29E-07  6.30E-05  1.11E-05  8.42E-04  0.00E+00  0.00E+00  1.19E-05  9.05E-04  7.65E-03  0.92664
    874.   11.442  8.30E-07  6.34E-05  1.10E-05  8.43E-04  0.00E+00  0.00E+00  1.19E-05  9.06E-04  7.67E-03  0.92630
    876.   11.416  8.32E-07  6.38E-05  1.10E-05  8.44E-04  0.00E+00  0.00E+00  1.18E-05  9.08E-04  7.70E-03  0.92595
    878.   11.390  8.32E-07  6.42E-05  1.10E-05  8.45E-04  0.00E+00  0.00E+00  1.18E-05  9.09E-04  7.72E-03  0.92565
    880.   11.364  8.34E-07  6.46E-05  1.09E-05  8.46E-04  0.00E+00  0.00E+00  1.18E-05  9.11E-04  7.74E-03  0.92529
    882.   11.338  8.35E-07  6.49E-05  1.09E-05  8.47E-04  0.00E+00  0.00E+00  1.17E-05  9.12E-04  7.77E-03  0.92496
    884.   11.312  8.36E-07  6.53E-05  1.09E-05  8.48E-04  0.00E+00  0.00E+00  1.17E-05  9.14E-04  7.79E-03  0.92465
    886.   11.287  8.37E-07  6.57E-05  1.08E-05  8.49E-04  0.00E+00  0.00E+00  1.17E-05  9.15E-04  7.81E-03  0.92425
    888.   11.261  8.38E-07  6.61E-05  1.08E-05  8.50E-04  0.00E+00  0.00E+00  1.16E-05  9.16E-04  7.84E-03  0.92393
    890.   11.236  8.40E-07  6.65E-05  1.07E-05  8.51E-04  0.00E+00  0.00E+00  1.16E-05  9.18E-04  7.86E-03  0.92347
    892.   11.211  8.42E-07  6.70E-05  1.07E-05  8.52E-04  0.00E+00  0.00E+00  1.15E-05  9.19E-04  7.88E-03  0.92301
    894.   11.186  8.42E-07  6.73E-05  1.07E-05  8.53E-04  0.00E+00  0.00E+00  1.15E-05  9.20E-04  7.91E-03  0.92273
    896.   11.161  8.45E-07  6.79E-05  1.06E-05  8.54E-04  0.00E+00  0.00E+00  1.15E-05  9.22E-04  7.93E-03  0.92217
    898.   11.136  8.46E-07  6.82E-05  1.06E-05  8.55E-04  0.00E+00  0.00E+00  1.14E-05  9.23E-04  7.95E-03  0.92183
    900.   11.111  8.49E-07  6.87E-05  1.06E-05  8.55E-04  0.00E+00  0.00E+00  1.14E-05  9.24E-04  7.97E-03  0.92125
  iv          905
1                                             RADIANCE(WATTS/CM2-STER-XXX)
0  FREQ   WAVLEN    PATH THERMAL      SURFACE EMISSION    SURFACE REFLECTED     TOTAL RADIANCE   INTEGRAL    TOTAL
  (CM-1) (MICRN)    (CM-1)   (MICRN)    (CM-1)   (MICRN)    (CM-1)   (MICRN)    (CM-1)   (MICRN)    (CM-1)   TRANS

    902.   11.086  8.50E-07  6.91E-05  1.05E-05  8.56E-04  0.00E+00  0.00E+00  1.14E-05  9.25E-04  8.00E-03  0.92092
    904.   11.062  8.52E-07  6.96E-05  1.05E-05  8.57E-04  0.00E+00  0.00E+00  1.13E-05  9.26E-04  8.02E-03  0.92036
    906.   11.038  8.53E-07  7.01E-05  1.04E-05  8.57E-04  0.00E+00  0.00E+00  1.13E-05  9.28E-04  8.04E-03  0.91998
    908.   11.013  8.58E-07  7.07E-05  1.04E-05  8.58E-04  0.00E+00  0.00E+00  1.13E-05  9.29E-04  8.07E-03  0.91920
    910.   10.989  8.61E-07  7.13E-05  1.04E-05  8.58E-04  0.00E+00  0.00E+00  1.12E-05  9.30E-04  8.09E-03  0.91857
    912.   10.965  8.61E-07  7.16E-05  1.03E-05  8.59E-04  0.00E+00  0.00E+00  1.12E-05  9.31E-04  8.11E-03  0.91842
    914.   10.941  8.64E-07  7.22E-05  1.03E-05  8.60E-04  0.00E+00  0.00E+00  1.12E-05  9.32E-04  8.13E-03  0.91775
    916.   10.917  8.67E-07  7.27E-05  1.03E-05  8.60E-04  0.00E+00  0.00E+00  1.11E-05  9.33E-04  8.15E-03  0.91717
    918.   10.893  8.75E-07  7.37E-05  1.02E-05  8.60E-04  0.00E+00  0.00E+00  1.11E-05  9.34E-04  8.18E-03  0.91604
    920.   10.870  8.78E-07  7.43E-05  1.02E-05  8.61E-04  0.00E+00  0.00E+00  1.10E-05  9.35E-04  8.20E-03  0.91536
    922.   10.846  8.87E-07  7.54E-05  1.01E-05  8.60E-04  0.00E+00  0.00E+00  1.10E-05  9.36E-04  8.22E-03  0.91403
    924.   10.823  8.89E-07  7.59E-05  1.01E-05  8.61E-04  0.00E+00  0.00E+00  1.10E-05  9.37E-04  8.24E-03  0.91352
    926.   10.799  8.98E-07  7.70E-05  1.00E-05  8.60E-04  0.00E+00  0.00E+00  1.09E-05  9.37E-04  8.26E-03  0.91208
    928.   10.776  9.09E-07  7.83E-05  9.98E-06  8.60E-04  0.00E+00  0.00E+00  1.09E-05  9.38E-04  8.29E-03  0.91053
    930.   10.753  9.28E-07  8.03E-05  9.92E-06  8.58E-04  0.00E+00  0.00E+00  1.09E-05  9.39E-04  8.31E-03  0.90791
    932.   10.730  9.51E-07  8.26E-05  9.86E-06  8.56E-04  0.00E+00  0.00E+00  1.08E-05  9.39E-04  8.33E-03  0.90484
    934.   10.707  9.68E-07  8.44E-05  9.80E-06  8.55E-04  0.00E+00  0.00E+00  1.08E-05  9.39E-04  8.35E-03  0.90236
    936.   10.684  9.89E-07  8.66E-05  9.73E-06  8.53E-04  0.00E+00  0.00E+00  1.07E-05  9.39E-04  8.37E-03  0.89938
    938.   10.661  1.01E-06  8.87E-05  9.67E-06  8.51E-04  0.00E+00  0.00E+00  1.07E-05  9.40E-04  8.39E-03  0.89659
    940.   10.638  1.02E-06  9.03E-05  9.62E-06  8.50E-04  0.00E+00  0.00E+00  1.06E-05  9.40E-04  8.42E-03  0.89435
    942.   10.616  1.11E-06  9.89E-05  9.45E-06  8.38E-04  0.00E+00  0.00E+00  1.06E-05  9.37E-04  8.44E-03  0.88188
    944.   10.593  1.05E-06  9.39E-05  9.50E-06  8.46E-04  0.00E+00  0.00E+00  1.06E-05  9.40E-04  8.46E-03  0.88922
    946.   10.571  1.06E-06  9.50E-05  9.45E-06  8.46E-04  0.00E+00  0.00E+00  1.05E-05  9.41E-04  8.48E-03  0.88770
    948.   10.549  1.14E-06  1.03E-04  9.30E-06  8.35E-04  0.00E+00  0.00E+00  1.04E-05  9.38E-04  8.50E-03  0.87622
    950.   10.526  1.05E-06  9.50E-05  9.39E-06  8.47E-04  0.00E+00  0.00E+00  1.04E-05  9.42E-04  8.52E-03  0.88785
    952.   10.504  1.05E-06  9.48E-05  9.36E-06  8.48E-04  0.00E+00  0.00E+00  1.04E-05  9.43E-04  8.54E-03  0.88838
    954.   10.482  1.02E-06  9.28E-05  9.36E-06  8.52E-04  0.00E+00  0.00E+00  1.04E-05  9.45E-04  8.56E-03  0.89151
    956.   10.460  1.04E-06  9.53E-05  9.29E-06  8.49E-04  0.00E+00  0.00E+00  1.03E-05  9.44E-04  8.58E-03  0.88783
    958.   10.438  9.64E-07  8.85E-05  9.37E-06  8.60E-04  0.00E+00  0.00E+00  1.03E-05  9.48E-04  8.60E-03  0.89811
    960.   10.417  8.87E-07  8.18E-05  9.44E-06  8.70E-04  0.00E+00  0.00E+00  1.03E-05  9.52E-04  8.62E-03  0.90831
    962.   10.395  9.13E-07  8.45E-05  9.37E-06  8.67E-04  0.00E+00  0.00E+00  1.03E-05  9.51E-04  8.64E-03  0.90444
    964.   10.373  9.48E-07  8.81E-05  9.28E-06  8.63E-04  0.00E+00  0.00E+00  1.02E-05  9.51E-04  8.66E-03  0.89929
    966.   10.352  1.04E-06  9.66E-05  9.12E-06  8.51E-04  0.00E+00  0.00E+00  1.02E-05  9.48E-04  8.69E-03  0.88681
    968.   10.331  1.09E-06  1.02E-04  9.00E-06  8.44E-04  0.00E+00  0.00E+00  1.01E-05  9.46E-04  8.71E-03  0.87848
    970.   10.309  1.06E-06  9.93E-05  9.02E-06  8.49E-04  0.00E+00  0.00E+00  1.01E-05  9.48E-04  8.73E-03  0.88346
    972.   10.288  1.21E-06  1.14E-04  8.77E-06  8.28E-04  0.00E+00  0.00E+00  9.97E-06  9.42E-04  8.75E-03  0.86134
    974.   10.267  1.06E-06  1.01E-04  8.94E-06  8.48E-04  0.00E+00  0.00E+00  1.00E-05  9.49E-04  8.77E-03  0.88168
    976.   10.246  1.18E-06  1.13E-04  8.73E-06  8.32E-04  0.00E+00  0.00E+00  9.92E-06  9.45E-04  8.79E-03  0.86418
    978.   10.225  1.09E-06  1.04E-04  8.83E-06  8.45E-04  0.00E+00  0.00E+00  9.92E-06  9.49E-04  8.81E-03  0.87726
    980.   10.204  1.05E-06  1.01E-04  8.85E-06  8.50E-04  0.00E+00  0.00E+00  9.91E-06  9.51E-04  8.83E-03  0.88238
    982.   10.183  1.05E-06  1.01E-04  8.83E-06  8.51E-04  0.00E+00  0.00E+00  9.87E-06  9.52E-04  8.84E-03  0.88264
    984.   10.163  9.99E-07  9.67E-05  8.86E-06  8.58E-04  0.00E+00  0.00E+00  9.86E-06  9.55E-04  8.86E-03  0.88931
    986.   10.142  9.20E-07  8.94E-05  8.93E-06  8.68E-04  0.00E+00  0.00E+00  9.85E-06  9.58E-04  8.88E-03  0.89974
    988.   10.121  9.30E-07  9.08E-05  8.88E-06  8.67E-04  0.00E+00  0.00E+00  9.81E-06  9.58E-04  8.90E-03  0.89794
    990.   10.101  9.04E-07  8.86E-05  8.88E-06  8.71E-04  0.00E+00  0.00E+00  9.79E-06  9.59E-04  8.92E-03  0.90123
    992.   10.081  8.92E-07  8.77E-05  8.86E-06  8.72E-04  0.00E+00  0.00E+00  9.75E-06  9.60E-04  8.94E-03  0.90249
    994.   10.060  8.75E-07  8.65E-05  8.85E-06  8.74E-04  0.00E+00  0.00E+00  9.72E-06  9.61E-04  8.96E-03  0.90430
    996.   10.040  8.72E-07  8.65E-05  8.82E-06  8.75E-04  0.00E+00  0.00E+00  9.69E-06  9.61E-04  8.98E-03  0.90436
    998.   10.020  8.70E-07  8.67E-05  8.78E-06  8.75E-04  0.00E+00  0.00E+00  9.65E-06  9.61E-04  9.00E-03  0.90422
   1000.   10.000  8.70E-07  8.70E-05  8.75E-06  8.75E-04  0.00E+00  0.00E+00  9.62E-06  9.62E-04  9.02E-03  0.90390
  iv         1005
1                                             RADIANCE(WATTS/CM2-STER-XXX)
0  FREQ   WAVLEN    PATH THERMAL      SURFACE EMISSION    SURFACE REFLECTED     TOTAL RADIANCE   INTEGRAL    TOTAL
  (CM-1) (MICRN)    (CM-1)   (MICRN)    (CM-1)   (MICRN)    (CM-1)   (MICRN)    (CM-1)   (MICRN)    (CM-1)   TRANS

   1002.    9.980  8.76E-07  8.79E-05  8.71E-06  8.74E-04  0.00E+00  0.00E+00  9.58E-06  9.62E-04  9.04E-03  0.90286
   1004.    9.960  8.80E-07  8.87E-05  8.66E-06  8.73E-04  0.00E+00  0.00E+00  9.54E-06  9.62E-04  9.06E-03  0.90195
   1006.    9.940  8.85E-07  8.95E-05  8.62E-06  8.73E-04  0.00E+00  0.00E+00  9.51E-06  9.62E-04  9.08E-03  0.90106
   1008.    9.921  8.91E-07  9.05E-05  8.58E-06  8.72E-04  0.00E+00  0.00E+00  9.47E-06  9.62E-04  9.10E-03  0.89997
   1010.    9.901  8.97E-07  9.15E-05  8.54E-06  8.71E-04  0.00E+00  0.00E+00  9.44E-06  9.62E-04  9.12E-03  0.89881
   1012.    9.881  9.02E-07  9.24E-05  8.50E-06  8.70E-04  0.00E+00  0.00E+00  9.40E-06  9.63E-04  9.13E-03  0.89776
   1014.    9.862  9.06E-07  9.32E-05  8.46E-06  8.70E-04  0.00E+00  0.00E+00  9.36E-06  9.63E-04  9.15E-03  0.89697
   1016.    9.843  9.15E-07  9.44E-05  8.41E-06  8.68E-04  0.00E+00  0.00E+00  9.33E-06  9.63E-04  9.17E-03  0.89547
   1018.    9.823  9.22E-07  9.56E-05  8.37E-06  8.67E-04  0.00E+00  0.00E+00  9.29E-06  9.63E-04  9.19E-03  0.89407
   1020.    9.804  9.31E-07  9.69E-05  8.32E-06  8.66E-04  0.00E+00  0.00E+00  9.25E-06  9.62E-04  9.21E-03  0.89248
   1022.    9.785  9.42E-07  9.84E-05  8.27E-06  8.64E-04  0.00E+00  0.00E+00  9.21E-06  9.62E-04  9.23E-03  0.89055
   1024.    9.766  9.55E-07  1.00E-04  8.22E-06  8.62E-04  0.00E+00  0.00E+00  9.17E-06  9.62E-04  9.25E-03  0.88832
   1026.    9.747  9.69E-07  1.02E-04  8.17E-06  8.60E-04  0.00E+00  0.00E+00  9.13E-06  9.61E-04  9.26E-03  0.88590
   1028.    9.728  9.84E-07  1.04E-04  8.11E-06  8.57E-04  0.00E+00  0.00E+00  9.09E-06  9.61E-04  9.28E-03  0.88329
   1030.    9.709  1.00E-06  1.06E-04  8.05E-06  8.54E-04  0.00E+00  0.00E+00  9.05E-06  9.60E-04  9.30E-03  0.88006
   1032.    9.690  1.02E-06  1.09E-04  7.99E-06  8.51E-04  0.00E+00  0.00E+00  9.01E-06  9.60E-04  9.32E-03  0.87683
   1034.    9.671  1.04E-06  1.11E-04  7.93E-06  8.47E-04  0.00E+00  0.00E+00  8.97E-06  9.59E-04  9.34E-03  0.87325
   1036.    9.653  1.06E-06  1.14E-04  7.86E-06  8.43E-04  0.00E+00  0.00E+00  8.92E-06  9.58E-04  9.35E-03  0.86923
   1038.    9.634  1.09E-06  1.17E-04  7.79E-06  8.39E-04  0.00E+00  0.00E+00  8.88E-06  9.56E-04  9.37E-03  0.86516
   1040.    9.615  1.11E-06  1.20E-04  7.73E-06  8.36E-04  0.00E+00  0.00E+00  8.83E-06  9.55E-04  9.39E-03  0.86113
   1042.    9.597  1.13E-06  1.22E-04  7.66E-06  8.32E-04  0.00E+00  0.00E+00  8.79E-06  9.54E-04  9.41E-03  0.85709
   1044.    9.579  1.15E-06  1.25E-04  7.60E-06  8.28E-04  0.00E+00  0.00E+00  8.74E-06  9.53E-04  9.42E-03  0.85333
   1046.    9.560  1.18E-06  1.29E-04  7.52E-06  8.23E-04  0.00E+00  0.00E+00  8.69E-06  9.51E-04  9.44E-03  0.84801
   1048.    9.542  1.18E-06  1.30E-04  7.47E-06  8.21E-04  0.00E+00  0.00E+00  8.65E-06  9.51E-04  9.46E-03  0.84603
   1050.    9.524  1.28E-06  1.41E-04  7.29E-06  8.04E-04  0.00E+00  0.00E+00  8.57E-06  9.45E-04  9.48E-03  0.82877
   1052.    9.506  1.20E-06  1.33E-04  7.38E-06  8.16E-04  0.00E+00  0.00E+00  8.58E-06  9.49E-04  9.49E-03  0.84200
   1054.    9.488  1.19E-06  1.32E-04  7.35E-06  8.17E-04  0.00E+00  0.00E+00  8.54E-06  9.49E-04  9.51E-03  0.84241
   1056.    9.470  1.25E-06  1.39E-04  7.23E-06  8.06E-04  0.00E+00  0.00E+00  8.48E-06  9.45E-04  9.53E-03  0.83165
   1058.    9.452  1.15E-06  1.29E-04  7.35E-06  8.22E-04  0.00E+00  0.00E+00  8.50E-06  9.51E-04  9.54E-03  0.84852
   1060.    9.434  1.11E-06  1.25E-04  7.37E-06  8.28E-04  0.00E+00  0.00E+00  8.48E-06  9.53E-04  9.56E-03  0.85495
   1062.    9.416  1.09E-06  1.23E-04  7.37E-06  8.31E-04  0.00E+00  0.00E+00  8.46E-06  9.54E-04  9.58E-03  0.85752
   1064.    9.398  1.02E-06  1.16E-04  7.44E-06  8.42E-04  0.00E+00  0.00E+00  8.46E-06  9.58E-04  9.60E-03  0.86983
   1066.    9.381  1.08E-06  1.23E-04  7.31E-06  8.31E-04  0.00E+00  0.00E+00  8.39E-06  9.54E-04  9.61E-03  0.85804
   1068.    9.363  1.18E-06  1.34E-04  7.13E-06  8.13E-04  0.00E+00  0.00E+00  8.31E-06  9.48E-04  9.63E-03  0.84019
   1070.    9.346  1.24E-06  1.42E-04  7.00E-06  8.01E-04  0.00E+00  0.00E+00  8.24E-06  9.44E-04  9.64E-03  0.82826
   1072.    9.328  1.28E-06  1.47E-04  6.91E-06  7.94E-04  0.00E+00  0.00E+00  8.19E-06  9.41E-04  9.66E-03  0.82093
   1074.    9.311  1.23E-06  1.42E-04  6.96E-06  8.03E-04  0.00E+00  0.00E+00  8.19E-06  9.44E-04  9.68E-03  0.83000
   1076.    9.294  1.40E-06  1.62E-04  6.66E-06  7.71E-04  0.00E+00  0.00E+00  8.06E-06  9.33E-04  9.69E-03  0.79778
   1078.    9.276  1.24E-06  1.44E-04  6.88E-06  8.00E-04  0.00E+00  0.00E+00  8.12E-06  9.43E-04  9.71E-03  0.82754
   1080.    9.259  1.37E-06  1.60E-04  6.65E-06  7.75E-04  0.00E+00  0.00E+00  8.02E-06  9.35E-04  9.73E-03  0.80262
   1082.    9.242  1.32E-06  1.55E-04  6.69E-06  7.83E-04  0.00E+00  0.00E+00  8.01E-06  9.38E-04  9.74E-03  0.81120
   1084.    9.225  1.17E-06  1.37E-04  6.89E-06  8.10E-04  0.00E+00  0.00E+00  8.06E-06  9.47E-04  9.76E-03  0.83918
   1086.    9.208  1.23E-06  1.45E-04  6.77E-06  7.99E-04  0.00E+00  0.00E+00  8.00E-06  9.44E-04  9.77E-03  0.82828
   1088.    9.191  1.15E-06  1.36E-04  6.85E-06  8.11E-04  0.00E+00  0.00E+00  8.00E-06  9.47E-04  9.79E-03  0.84083
   1090.    9.174  1.10E-06  1.31E-04  6.89E-06  8.18E-04  0.00E+00  0.00E+00  7.99E-06  9.49E-04  9.81E-03  0.84895
   1092.    9.158  1.06E-06  1.27E-04  6.91E-06  8.24E-04  0.00E+00  0.00E+00  7.97E-06  9.51E-04  9.82E-03  0.85536
   1094.    9.141  1.02E-06  1.23E-04  6.93E-06  8.29E-04  0.00E+00  0.00E+00  7.95E-06  9.52E-04  9.84E-03  0.86099
   1096.    9.124  1.00E-06  1.20E-04  6.92E-06  8.31E-04  0.00E+00  0.00E+00  7.92E-06  9.52E-04  9.85E-03  0.86388
   1098.    9.107  9.87E-07  1.19E-04  6.91E-06  8.33E-04  0.00E+00  0.00E+00  7.89E-06  9.52E-04  9.87E-03  0.86569
   1100.    9.091  9.75E-07  1.18E-04  6.89E-06  8.33E-04  0.00E+00  0.00E+00  7.86E-06  9.51E-04  9.89E-03  0.86701
  iv         1105
1                                             RADIANCE(WATTS/CM2-STER-XXX)
0  FREQ   WAVLEN    PATH THERMAL      SURFACE EMISSION    SURFACE REFLECTED     TOTAL RADIANCE   INTEGRAL    TOTAL
  (CM-1) (MICRN)    (CM-1)   (MICRN)    (CM-1)   (MICRN)    (CM-1)   (MICRN)    (CM-1)   (MICRN)    (CM-1)   TRANS

   1102.    9.074  9.66E-07  1.17E-04  6.87E-06  8.34E-04  0.00E+00  0.00E+00  7.83E-06  9.51E-04  9.90E-03  0.86779
   1104.    9.058  9.58E-07  1.17E-04  6.84E-06  8.34E-04  0.00E+00  0.00E+00  7.80E-06  9.51E-04  9.92E-03  0.86827
   1106.    9.042  9.52E-07  1.16E-04  6.81E-06  8.34E-04  0.00E+00  0.00E+00  7.77E-06  9.50E-04  9.93E-03  0.86861
   1108.    9.025  9.46E-07  1.16E-04  6.79E-06  8.33E-04  0.00E+00  0.00E+00  7.73E-06  9.49E-04  9.95E-03  0.86883
   1110.    9.009  9.41E-07  1.16E-04  6.76E-06  8.33E-04  0.00E+00  0.00E+00  7.70E-06  9.49E-04  9.96E-03  0.86902
   1112.    8.993  9.35E-07  1.16E-04  6.73E-06  8.33E-04  0.00E+00  0.00E+00  7.67E-06  9.48E-04  9.98E-03  0.86925
   1114.    8.977  9.30E-07  1.15E-04  6.71E-06  8.32E-04  0.00E+00  0.00E+00  7.64E-06  9.48E-04  9.99E-03  0.86948
   1116.    8.961  9.24E-07  1.15E-04  6.68E-06  8.32E-04  0.00E+00  0.00E+00  7.60E-06  9.47E-04  1.00E-02  0.86971
   1118.    8.945  9.18E-07  1.15E-04  6.65E-06  8.32E-04  0.00E+00  0.00E+00  7.57E-06  9.46E-04  1.00E-02  0.86995
   1120.    8.929  9.12E-07  1.14E-04  6.63E-06  8.31E-04  0.00E+00  0.00E+00  7.54E-06  9.46E-04  1.00E-02  0.87019
   1122.    8.913  9.06E-07  1.14E-04  6.60E-06  8.31E-04  0.00E+00  0.00E+00  7.51E-06  9.45E-04  1.01E-02  0.87043
   1124.    8.897  9.01E-07  1.14E-04  6.57E-06  8.30E-04  0.00E+00  0.00E+00  7.47E-06  9.44E-04  1.01E-02  0.87067
   1126.    8.881  8.95E-07  1.13E-04  6.55E-06  8.30E-04  0.00E+00  0.00E+00  7.44E-06  9.43E-04  1.01E-02  0.87091
   1128.    8.865  8.89E-07  1.13E-04  6.52E-06  8.30E-04  0.00E+00  0.00E+00  7.41E-06  9.43E-04  1.01E-02  0.87115
   1130.    8.850  8.84E-07  1.13E-04  6.49E-06  8.29E-04  0.00E+00  0.00E+00  7.38E-06  9.42E-04  1.01E-02  0.87138
   1132.    8.834  8.78E-07  1.12E-04  6.47E-06  8.29E-04  0.00E+00  0.00E+00  7.35E-06  9.41E-04  1.01E-02  0.87162
   1134.    8.818  8.72E-07  1.12E-04  6.44E-06  8.28E-04  0.00E+00  0.00E+00  7.31E-06  9.40E-04  1.01E-02  0.87185
   1136.    8.803  8.67E-07  1.12E-04  6.41E-06  8.28E-04  0.00E+00  0.00E+00  7.28E-06  9.40E-04  1.02E-02  0.87209
   1138.    8.787  8.61E-07  1.12E-04  6.39E-06  8.27E-04  0.00E+00  0.00E+00  7.25E-06  9.39E-04  1.02E-02  0.87232
   1140.    8.772  8.56E-07  1.11E-04  6.36E-06  8.27E-04  0.00E+00  0.00E+00  7.22E-06  9.38E-04  1.02E-02  0.87256
   1142.    8.757  8.50E-07  1.11E-04  6.34E-06  8.26E-04  0.00E+00  0.00E+00  7.19E-06  9.37E-04  1.02E-02  0.87279
   1144.    8.741  8.45E-07  1.11E-04  6.31E-06  8.26E-04  0.00E+00  0.00E+00  7.15E-06  9.36E-04  1.02E-02  0.87302
   1146.    8.726  8.39E-07  1.10E-04  6.28E-06  8.25E-04  0.00E+00  0.00E+00  7.12E-06  9.36E-04  1.02E-02  0.87336
   1148.    8.711  8.32E-07  1.10E-04  6.26E-06  8.25E-04  0.00E+00  0.00E+00  7.09E-06  9.35E-04  1.02E-02  0.87382
   1150.    8.696  8.23E-07  1.09E-04  6.24E-06  8.25E-04  0.00E+00  0.00E+00  7.06E-06  9.34E-04  1.03E-02  0.87451
   1152.    8.681  8.06E-07  1.07E-04  6.22E-06  8.26E-04  0.00E+00  0.00E+00  7.03E-06  9.33E-04  1.03E-02  0.87652
   1154.    8.666  7.88E-07  1.05E-04  6.21E-06  8.27E-04  0.00E+00  0.00E+00  7.00E-06  9.32E-04  1.03E-02  0.87876
   1156.    8.651  7.70E-07  1.03E-04  6.20E-06  8.29E-04  0.00E+00  0.00E+00  6.97E-06  9.32E-04  1.03E-02  0.88100
   1158.    8.636  7.52E-07  1.01E-04  6.19E-06  8.30E-04  0.00E+00  0.00E+00  6.94E-06  9.31E-04  1.03E-02  0.88323
   1160.    8.621  7.34E-07  9.87E-05  6.18E-06  8.31E-04  0.00E+00  0.00E+00  6.91E-06  9.30E-04  1.03E-02  0.88546
   1162.    8.606  7.16E-07  9.67E-05  6.17E-06  8.32E-04  0.00E+00  0.00E+00  6.88E-06  9.29E-04  1.03E-02  0.88769
   1164.    8.591  6.98E-07  9.46E-05  6.15E-06  8.34E-04  0.00E+00  0.00E+00  6.85E-06  9.28E-04  1.04E-02  0.88992
   1166.    8.576  6.81E-07  9.26E-05  6.14E-06  8.35E-04  0.00E+00  0.00E+00  6.82E-06  9.27E-04  1.04E-02  0.89215
   1168.    8.562  6.64E-07  9.05E-05  6.13E-06  8.36E-04  0.00E+00  0.00E+00  6.79E-06  9.27E-04  1.04E-02  0.89437
   1170.    8.547  6.47E-07  8.85E-05  6.12E-06  8.37E-04  0.00E+00  0.00E+00  6.76E-06  9.26E-04  1.04E-02  0.89659
   1172.    8.532  6.30E-07  8.65E-05  6.10E-06  8.38E-04  0.00E+00  0.00E+00  6.73E-06  9.25E-04  1.04E-02  0.89881
   1174.    8.518  6.13E-07  8.44E-05  6.09E-06  8.40E-04  0.00E+00  0.00E+00  6.70E-06  9.24E-04  1.04E-02  0.90103
   1176.    8.503  5.96E-07  8.24E-05  6.08E-06  8.41E-04  0.00E+00  0.00E+00  6.67E-06  9.23E-04  1.04E-02  0.90324
   1178.    8.489  5.79E-07  8.04E-05  6.07E-06  8.42E-04  0.00E+00  0.00E+00  6.65E-06  9.22E-04  1.04E-02  0.90545
   1180.    8.475  5.63E-07  7.84E-05  6.05E-06  8.43E-04  0.00E+00  0.00E+00  6.62E-06  9.21E-04  1.05E-02  0.90766
   1182.    8.460  5.47E-07  7.64E-05  6.04E-06  8.44E-04  0.00E+00  0.00E+00  6.59E-06  9.20E-04  1.05E-02  0.90987
   1184.    8.446  5.31E-07  7.44E-05  6.03E-06  8.45E-04  0.00E+00  0.00E+00  6.56E-06  9.19E-04  1.05E-02  0.91208
   1186.    8.432  5.15E-07  7.24E-05  6.01E-06  8.46E-04  0.00E+00  0.00E+00  6.53E-06  9.18E-04  1.05E-02  0.91428
   1188.    8.418  4.99E-07  7.04E-05  6.00E-06  8.47E-04  0.00E+00  0.00E+00  6.50E-06  9.17E-04  1.05E-02  0.91648
   1190.    8.403  4.83E-07  6.84E-05  5.99E-06  8.48E-04  0.00E+00  0.00E+00  6.47E-06  9.16E-04  1.05E-02  0.91869
   1192.    8.389  4.68E-07  6.65E-05  5.97E-06  8.49E-04  0.00E+00  0.00E+00  6.44E-06  9.15E-04  1.05E-02  0.92088
   1194.    8.375  4.52E-07  6.45E-05  5.96E-06  8.50E-04  0.00E+00  0.00E+00  6.41E-06  9.14E-04  1.06E-02  0.92308
   1196.    8.361  4.37E-07  6.25E-05  5.95E-06  8.51E-04  0.00E+00  0.00E+00  6.39E-06  9.13E-04  1.06E-02  0.92527
   1198.    8.347  4.22E-07  6.06E-05  5.93E-06  8.52E-04  0.00E+00  0.00E+00  6.36E-06  9.12E-04  1.06E-02  0.92746
   1200.    8.333  4.07E-07  5.86E-05  5.92E-06  8.53E-04  0.00E+00  0.00E+00  6.33E-06  9.11E-04  1.06E-02  0.92965
  iv         1205
1                                             RADIANCE(WATTS/CM2-STER-XXX)
0  FREQ   WAVLEN    PATH THERMAL      SURFACE EMISSION    SURFACE REFLECTED     TOTAL RADIANCE   INTEGRAL    TOTAL
  (CM-1) (MICRN)    (CM-1)   (MICRN)    (CM-1)   (MICRN)    (CM-1)   (MICRN)    (CM-1)   (MICRN)    (CM-1)   TRANS

   1202.    8.319  3.92E-07  5.67E-05  5.91E-06  8.54E-04  0.00E+00  0.00E+00  6.30E-06  9.10E-04  1.06E-02  0.93184
   1204.    8.306  3.78E-07  5.48E-05  5.89E-06  8.54E-04  0.00E+00  0.00E+00  6.27E-06  9.09E-04  1.06E-02  0.93403
   1206.    8.292  3.63E-07  5.28E-05  5.88E-06  8.55E-04  0.00E+00  0.00E+00  6.24E-06  9.08E-04  1.06E-02  0.93621
   1208.    8.278  3.49E-07  5.09E-05  5.87E-06  8.56E-04  0.00E+00  0.00E+00  6.22E-06  9.07E-04  1.06E-02  0.93839
   1210.    8.264  3.35E-07  4.90E-05  5.85E-06  8.57E-04  0.00E+00  0.00E+00  6.19E-06  9.06E-04  1.07E-02  0.94054
   1212.    8.251  3.21E-07  4.71E-05  5.84E-06  8.58E-04  0.00E+00  0.00E+00  6.16E-06  9.05E-04  1.07E-02  0.94269
   1214.    8.237  3.07E-07  4.52E-05  5.82E-06  8.58E-04  0.00E+00  0.00E+00  6.13E-06  9.04E-04  1.07E-02  0.94484
   1216.    8.224  2.94E-07  4.35E-05  5.81E-06  8.59E-04  0.00E+00  0.00E+00  6.10E-06  9.03E-04  1.07E-02  0.94686
   1218.    8.210  2.81E-07  4.18E-05  5.79E-06  8.60E-04  0.00E+00  0.00E+00  6.08E-06  9.01E-04  1.07E-02  0.94879
   1220.    8.197  2.71E-07  4.03E-05  5.78E-06  8.60E-04  0.00E+00  0.00E+00  6.05E-06  9.00E-04  1.07E-02  0.95044
   1222.    8.183  2.69E-07  4.01E-05  5.75E-06  8.59E-04  0.00E+00  0.00E+00  6.02E-06  8.99E-04  1.07E-02  0.95057
   1224.    8.170  2.68E-07  4.01E-05  5.72E-06  8.58E-04  0.00E+00  0.00E+00  5.99E-06  8.98E-04  1.07E-02  0.95052
   1226.    8.157  2.67E-07  4.01E-05  5.70E-06  8.56E-04  0.00E+00  0.00E+00  5.96E-06  8.96E-04  1.08E-02  0.95042
   1228.    8.143  2.66E-07  4.01E-05  5.67E-06  8.55E-04  0.00E+00  0.00E+00  5.93E-06  8.95E-04  1.08E-02  0.95017
   1230.    8.130  2.65E-07  4.02E-05  5.64E-06  8.53E-04  0.00E+00  0.00E+00  5.91E-06  8.93E-04  1.08E-02  0.95003
   1232.    8.117  2.65E-07  4.02E-05  5.61E-06  8.52E-04  0.00E+00  0.00E+00  5.88E-06  8.92E-04  1.08E-02  0.94980
   1234.    8.104  2.65E-07  4.04E-05  5.58E-06  8.50E-04  0.00E+00  0.00E+00  5.85E-06  8.90E-04  1.08E-02  0.94934
   1236.    8.091  2.64E-07  4.04E-05  5.55E-06  8.49E-04  0.00E+00  0.00E+00  5.82E-06  8.89E-04  1.08E-02  0.94916
   1238.    8.078  2.65E-07  4.06E-05  5.52E-06  8.47E-04  0.00E+00  0.00E+00  5.79E-06  8.87E-04  1.08E-02  0.94844
   1240.    8.065  2.64E-07  4.06E-05  5.50E-06  8.45E-04  0.00E+00  0.00E+00  5.76E-06  8.86E-04  1.08E-02  0.94835
   1242.    8.052  2.66E-07  4.10E-05  5.46E-06  8.43E-04  0.00E+00  0.00E+00  5.73E-06  8.84E-04  1.08E-02  0.94728
   1244.    8.039  2.64E-07  4.09E-05  5.44E-06  8.42E-04  0.00E+00  0.00E+00  5.70E-06  8.83E-04  1.09E-02  0.94731
   1246.    8.026  2.64E-07  4.09E-05  5.41E-06  8.40E-04  0.00E+00  0.00E+00  5.67E-06  8.81E-04  1.09E-02  0.94701
   1248.    8.013  2.64E-07  4.12E-05  5.38E-06  8.38E-04  0.00E+00  0.00E+00  5.64E-06  8.79E-04  1.09E-02  0.94618
   1250.    8.000  2.61E-07  4.08E-05  5.36E-06  8.37E-04  0.00E+00  0.00E+00  5.62E-06  8.78E-04  1.09E-02  0.94689
   1252.    7.987  2.59E-07  4.06E-05  5.33E-06  8.36E-04  0.00E+00  0.00E+00  5.59E-06  8.77E-04  1.09E-02  0.94719
   1254.    7.974  2.57E-07  4.05E-05  5.31E-06  8.35E-04  0.00E+00  0.00E+00  5.57E-06  8.75E-04  1.09E-02  0.94735
   1256.    7.962  2.54E-07  4.00E-05  5.29E-06  8.34E-04  0.00E+00  0.00E+00  5.54E-06  8.74E-04  1.09E-02  0.94837
   1258.    7.949  2.49E-07  3.94E-05  5.27E-06  8.34E-04  0.00E+00  0.00E+00  5.52E-06  8.74E-04  1.09E-02  0.94985
   1260.    7.937  2.47E-07  3.93E-05  5.25E-06  8.33E-04  0.00E+00  0.00E+00  5.50E-06  8.72E-04  1.09E-02  0.95011
   1262.    7.924  2.49E-07  3.96E-05  5.22E-06  8.31E-04  0.00E+00  0.00E+00  5.46E-06  8.70E-04  1.10E-02  0.94889
   1264.    7.911  2.49E-07  3.98E-05  5.19E-06  8.29E-04  0.00E+00  0.00E+00  5.44E-06  8.69E-04  1.10E-02  0.94818
   1266.    7.899  2.51E-07  4.02E-05  5.16E-06  8.26E-04  0.00E+00  0.00E+00  5.41E-06  8.67E-04  1.10E-02  0.94731
   1268.    7.886  2.55E-07  4.10E-05  5.12E-06  8.24E-04  0.00E+00  0.00E+00  5.38E-06  8.65E-04  1.10E-02  0.94557
   1270.    7.874  2.57E-07  4.15E-05  5.09E-06  8.21E-04  0.00E+00  0.00E+00  5.35E-06  8.63E-04  1.10E-02  0.94482
   1272.    7.862  2.57E-07  4.16E-05  5.07E-06  8.20E-04  0.00E+00  0.00E+00  5.33E-06  8.62E-04  1.10E-02  0.94502
   1274.    7.849  2.59E-07  4.20E-05  5.04E-06  8.18E-04  0.00E+00  0.00E+00  5.30E-06  8.60E-04  1.10E-02  0.94457
   1276.    7.837  2.61E-07  4.25E-05  5.01E-06  8.16E-04  0.00E+00  0.00E+00  5.27E-06  8.59E-04  1.10E-02  0.94370
   1278.    7.825  2.60E-07  4.25E-05  4.99E-06  8.15E-04  0.00E+00  0.00E+00  5.25E-06  8.58E-04  1.10E-02  0.94411
   1280.    7.813  2.62E-07  4.29E-05  4.96E-06  8.13E-04  0.00E+00  0.00E+00  5.22E-06  8.56E-04  1.11E-02  0.94357
   1282.    7.800  2.61E-07  4.29E-05  4.94E-06  8.12E-04  0.00E+00  0.00E+00  5.20E-06  8.55E-04  1.11E-02  0.94390
   1284.    7.788  2.62E-07  4.32E-05  4.91E-06  8.10E-04  0.00E+00  0.00E+00  5.18E-06  8.53E-04  1.11E-02  0.94349
   1286.    7.776  2.62E-07  4.33E-05  4.89E-06  8.09E-04  0.00E+00  0.00E+00  5.15E-06  8.52E-04  1.11E-02  0.94362
   1288.    7.764  2.63E-07  4.37E-05  4.86E-06  8.07E-04  0.00E+00  0.00E+00  5.13E-06  8.50E-04  1.11E-02  0.94319
   1290.    7.752  2.64E-07  4.39E-05  4.84E-06  8.05E-04  0.00E+00  0.00E+00  5.10E-06  8.49E-04  1.11E-02  0.94299
   1292.    7.740  2.64E-07  4.41E-05  4.81E-06  8.03E-04  0.00E+00  0.00E+00  5.08E-06  8.47E-04  1.11E-02  0.94261
   1294.    7.728  2.65E-07  4.44E-05  4.79E-06  8.01E-04  0.00E+00  0.00E+00  5.05E-06  8.46E-04  1.11E-02  0.94219
   1296.    7.716  2.66E-07  4.47E-05  4.76E-06  8.00E-04  0.00E+00  0.00E+00  5.03E-06  8.44E-04  1.11E-02  0.94181
   1298.    7.704  2.67E-07  4.50E-05  4.73E-06  7.98E-04  0.00E+00  0.00E+00  5.00E-06  8.43E-04  1.11E-02  0.94130
   1300.    7.692  2.68E-07  4.54E-05  4.71E-06  7.96E-04  0.00E+00  0.00E+00  4.98E-06  8.41E-04  1.12E-02  0.94080
  iv         1305
1                                             RADIANCE(WATTS/CM2-STER-XXX)
0  FREQ   WAVLEN    PATH THERMAL      SURFACE EMISSION    SURFACE REFLECTED     TOTAL RADIANCE   INTEGRAL    TOTAL
  (CM-1) (MICRN)    (CM-1)   (MICRN)    (CM-1)   (MICRN)    (CM-1)   (MICRN)    (CM-1)   (MICRN)    (CM-1)   TRANS

   1302.    7.680  2.69E-07  4.57E-05  4.68E-06  7.94E-04  0.00E+00  0.00E+00  4.95E-06  8.39E-04  1.12E-02  0.94029
   1304.    7.669  2.71E-07  4.60E-05  4.66E-06  7.92E-04  0.00E+00  0.00E+00  4.93E-06  8.38E-04  1.12E-02  0.93975
   1306.    7.657  2.72E-07  4.63E-05  4.63E-06  7.90E-04  0.00E+00  0.00E+00  4.90E-06  8.36E-04  1.12E-02  0.93922
   1308.    7.645  2.73E-07  4.67E-05  4.60E-06  7.88E-04  0.00E+00  0.00E+00  4.88E-06  8.34E-04  1.12E-02  0.93868
   1310.    7.634  2.74E-07  4.70E-05  4.58E-06  7.86E-04  0.00E+00  0.00E+00  4.85E-06  8.33E-04  1.12E-02  0.93812
   1312.    7.622  2.75E-07  4.73E-05  4.55E-06  7.84E-04  0.00E+00  0.00E+00  4.83E-06  8.31E-04  1.12E-02  0.93757
   1314.    7.610  2.76E-07  4.77E-05  4.53E-06  7.82E-04  0.00E+00  0.00E+00  4.80E-06  8.29E-04  1.12E-02  0.93702
   1316.    7.599  2.77E-07  4.80E-05  4.50E-06  7.80E-04  0.00E+00  0.00E+00  4.78E-06  8.28E-04  1.12E-02  0.93646
   1318.    7.587  2.78E-07  4.83E-05  4.48E-06  7.78E-04  0.00E+00  0.00E+00  4.75E-06  8.26E-04  1.12E-02  0.93589
   1320.    7.576  2.79E-07  4.86E-05  4.45E-06  7.76E-04  0.00E+00  0.00E+00  4.73E-06  8.24E-04  1.13E-02  0.93533
   1322.    7.564  2.80E-07  4.89E-05  4.43E-06  7.73E-04  0.00E+00  0.00E+00  4.71E-06  8.22E-04  1.13E-02  0.93476
   1324.    7.553  2.81E-07  4.93E-05  4.40E-06  7.71E-04  0.00E+00  0.00E+00  4.68E-06  8.21E-04  1.13E-02  0.93419
   1326.    7.541  2.82E-07  4.96E-05  4.38E-06  7.69E-04  0.00E+00  0.00E+00  4.66E-06  8.19E-04  1.13E-02  0.93361
   1328.    7.530  2.83E-07  4.99E-05  4.35E-06  7.67E-04  0.00E+00  0.00E+00  4.63E-06  8.17E-04  1.13E-02  0.93303
   1330.    7.519  2.84E-07  5.02E-05  4.33E-06  7.65E-04  0.00E+00  0.00E+00  4.61E-06  8.15E-04  1.13E-02  0.93240
   1332.    7.508  2.85E-07  5.06E-05  4.30E-06  7.63E-04  0.00E+00  0.00E+00  4.59E-06  8.14E-04  1.13E-02  0.93177
   1334.    7.496  2.86E-07  5.09E-05  4.28E-06  7.61E-04  0.00E+00  0.00E+00  4.56E-06  8.12E-04  1.13E-02  0.93115
   1336.    7.485  2.87E-07  5.13E-05  4.25E-06  7.59E-04  0.00E+00  0.00E+00  4.54E-06  8.10E-04  1.13E-02  0.93033
   1338.    7.474  2.89E-07  5.17E-05  4.22E-06  7.56E-04  0.00E+00  0.00E+00  4.51E-06  8.08E-04  1.13E-02  0.92955
   1340.    7.463  2.90E-07  5.20E-05  4.20E-06  7.54E-04  0.00E+00  0.00E+00  4.49E-06  8.06E-04  1.13E-02  0.92882
   1342.    7.452  2.92E-07  5.25E-05  4.17E-06  7.52E-04  0.00E+00  0.00E+00  4.46E-06  8.04E-04  1.14E-02  0.92769
   1344.    7.440  2.93E-07  5.30E-05  4.15E-06  7.49E-04  0.00E+00  0.00E+00  4.44E-06  8.02E-04  1.14E-02  0.92655
   1346.    7.429  2.94E-07  5.33E-05  4.12E-06  7.47E-04  0.00E+00  0.00E+00  4.42E-06  8.00E-04  1.14E-02  0.92583
   1348.    7.418  2.97E-07  5.40E-05  4.09E-06  7.44E-04  0.00E+00  0.00E+00  4.39E-06  7.98E-04  1.14E-02  0.92421
   1350.    7.407  2.97E-07  5.42E-05  4.07E-06  7.42E-04  0.00E+00  0.00E+00  4.37E-06  7.96E-04  1.14E-02  0.92364
   1352.    7.396  3.00E-07  5.48E-05  4.04E-06  7.39E-04  0.00E+00  0.00E+00  4.34E-06  7.94E-04  1.14E-02  0.92205
   1354.    7.386  2.99E-07  5.49E-05  4.02E-06  7.37E-04  0.00E+00  0.00E+00  4.32E-06  7.92E-04  1.14E-02  0.92200
   1356.    7.375  3.01E-07  5.53E-05  3.99E-06  7.35E-04  0.00E+00  0.00E+00  4.30E-06  7.90E-04  1.14E-02  0.92075
   1358.    7.364  3.00E-07  5.52E-05  3.98E-06  7.33E-04  0.00E+00  0.00E+00  4.28E-06  7.89E-04  1.14E-02  0.92123
   1360.    7.353  3.00E-07  5.54E-05  3.95E-06  7.31E-04  0.00E+00  0.00E+00  4.25E-06  7.87E-04  1.14E-02  0.92077
   1362.    7.342  2.98E-07  5.53E-05  3.94E-06  7.30E-04  0.00E+00  0.00E+00  4.23E-06  7.86E-04  1.14E-02  0.92158
   1364.    7.331  2.97E-07  5.52E-05  3.92E-06  7.29E-04  0.00E+00  0.00E+00  4.21E-06  7.84E-04  1.14E-02  0.92204
   1366.    7.321  2.96E-07  5.52E-05  3.90E-06  7.28E-04  0.00E+00  0.00E+00  4.19E-06  7.83E-04  1.15E-02  0.92242
   1368.    7.310  2.97E-07  5.56E-05  3.87E-06  7.25E-04  0.00E+00  0.00E+00  4.17E-06  7.81E-04  1.15E-02  0.92110
   1370.    7.299  3.00E-07  5.63E-05  3.84E-06  7.22E-04  0.00E+00  0.00E+00  4.14E-06  7.78E-04  1.15E-02  0.91910
   1372.    7.289  3.01E-07  5.67E-05  3.82E-06  7.19E-04  0.00E+00  0.00E+00  4.12E-06  7.76E-04  1.15E-02  0.91800
   1374.    7.278  3.04E-07  5.73E-05  3.79E-06  7.16E-04  0.00E+00  0.00E+00  4.10E-06  7.73E-04  1.15E-02  0.91628
   1376.    7.267  3.03E-07  5.75E-05  3.77E-06  7.14E-04  0.00E+00  0.00E+00  4.08E-06  7.72E-04  1.15E-02  0.91619
   1378.    7.257  3.05E-07  5.79E-05  3.75E-06  7.12E-04  0.00E+00  0.00E+00  4.05E-06  7.70E-04  1.15E-02  0.91485
   1380.    7.246  3.04E-07  5.79E-05  3.73E-06  7.10E-04  0.00E+00  0.00E+00  4.03E-06  7.68E-04  1.15E-02  0.91525
   1382.    7.236  3.04E-07  5.80E-05  3.71E-06  7.08E-04  0.00E+00  0.00E+00  4.01E-06  7.66E-04  1.15E-02  0.91511
   1384.    7.225  3.04E-07  5.82E-05  3.69E-06  7.06E-04  0.00E+00  0.00E+00  3.99E-06  7.65E-04  1.15E-02  0.91452
   1386.    7.215  3.02E-07  5.80E-05  3.67E-06  7.05E-04  0.00E+00  0.00E+00  3.97E-06  7.63E-04  1.15E-02  0.91535
   1388.    7.205  3.01E-07  5.80E-05  3.65E-06  7.04E-04  0.00E+00  0.00E+00  3.95E-06  7.62E-04  1.15E-02  0.91544
   1390.    7.194  3.00E-07  5.79E-05  3.63E-06  7.02E-04  0.00E+00  0.00E+00  3.93E-06  7.60E-04  1.16E-02  0.91557
   1392.    7.184  2.97E-07  5.76E-05  3.62E-06  7.01E-04  0.00E+00  0.00E+00  3.91E-06  7.58E-04  1.16E-02  0.91601
   1394.    7.174  2.95E-07  5.74E-05  3.60E-06  6.99E-04  0.00E+00  0.00E+00  3.89E-06  7.56E-04  1.16E-02  0.91619
   1396.    7.163  2.92E-07  5.70E-05  3.58E-06  6.98E-04  0.00E+00  0.00E+00  3.87E-06  7.55E-04  1.16E-02  0.91677
   1398.    7.153  2.91E-07  5.68E-05  3.56E-06  6.96E-04  0.00E+00  0.00E+00  3.85E-06  7.53E-04  1.16E-02  0.91689
   1400.    7.143  2.89E-07  5.66E-05  3.54E-06  6.95E-04  0.00E+00  0.00E+00  3.83E-06  7.51E-04  1.16E-02  0.91695
  iv         1405
1                                             RADIANCE(WATTS/CM2-STER-XXX)
0  FREQ   WAVLEN    PATH THERMAL      SURFACE EMISSION    SURFACE REFLECTED     TOTAL RADIANCE   INTEGRAL    TOTAL
  (CM-1) (MICRN)    (CM-1)   (MICRN)    (CM-1)   (MICRN)    (CM-1)   (MICRN)    (CM-1)   (MICRN)    (CM-1)   TRANS

   1402.    7.133  2.87E-07  5.63E-05  3.53E-06  6.93E-04  0.00E+00  0.00E+00  3.81E-06  7.49E-04  1.16E-02  0.91724
   1404.    7.123  2.85E-07  5.62E-05  3.51E-06  6.91E-04  0.00E+00  0.00E+00  3.79E-06  7.48E-04  1.16E-02  0.91731
   1406.    7.112  2.83E-07  5.60E-05  3.49E-06  6.90E-04  0.00E+00  0.00E+00  3.77E-06  7.46E-04  1.16E-02  0.91737
   1408.    7.102  2.82E-07  5.58E-05  3.47E-06  6.88E-04  0.00E+00  0.00E+00  3.75E-06  7.44E-04  1.16E-02  0.91732
   1410.    7.092  2.80E-07  5.57E-05  3.45E-06  6.86E-04  0.00E+00  0.00E+00  3.73E-06  7.42E-04  1.16E-02  0.91725
   1412.    7.082  2.79E-07  5.56E-05  3.43E-06  6.84E-04  0.00E+00  0.00E+00  3.71E-06  7.40E-04  1.16E-02  0.91697
   1414.    7.072  2.78E-07  5.56E-05  3.41E-06  6.82E-04  0.00E+00  0.00E+00  3.69E-06  7.38E-04  1.16E-02  0.91667
   1416.    7.062  2.78E-07  5.57E-05  3.39E-06  6.80E-04  0.00E+00  0.00E+00  3.67E-06  7.36E-04  1.17E-02  0.91610
   1418.    7.052  2.78E-07  5.58E-05  3.37E-06  6.78E-04  0.00E+00  0.00E+00  3.65E-06  7.34E-04  1.17E-02  0.91532
   1420.    7.042  2.78E-07  5.61E-05  3.35E-06  6.75E-04  0.00E+00  0.00E+00  3.63E-06  7.31E-04  1.17E-02  0.91438
   1422.    7.032  2.80E-07  5.66E-05  3.33E-06  6.72E-04  0.00E+00  0.00E+00  3.61E-06  7.29E-04  1.17E-02  0.91283
   1424.    7.022  2.82E-07  5.71E-05  3.30E-06  6.69E-04  0.00E+00  0.00E+00  3.58E-06  7.27E-04  1.17E-02  0.91111
   1426.    7.013  2.85E-07  5.80E-05  3.27E-06  6.66E-04  0.00E+00  0.00E+00  3.56E-06  7.24E-04  1.17E-02  0.90851
   1428.    7.003  2.91E-07  5.93E-05  3.24E-06  6.62E-04  0.00E+00  0.00E+00  3.54E-06  7.21E-04  1.17E-02  0.90502
   1430.    6.993  2.97E-07  6.08E-05  3.21E-06  6.57E-04  0.00E+00  0.00E+00  3.51E-06  7.18E-04  1.17E-02  0.90110
   1432.    6.983  3.09E-07  6.34E-05  3.17E-06  6.50E-04  0.00E+00  0.00E+00  3.48E-06  7.14E-04  1.17E-02  0.89454
   1434.    6.974  3.21E-07  6.61E-05  3.13E-06  6.44E-04  0.00E+00  0.00E+00  3.45E-06  7.10E-04  1.17E-02  0.88757
   1436.    6.964  3.30E-07  6.81E-05  3.10E-06  6.38E-04  0.00E+00  0.00E+00  3.43E-06  7.06E-04  1.17E-02  0.88250
   1438.    6.954  3.36E-07  6.94E-05  3.07E-06  6.34E-04  0.00E+00  0.00E+00  3.40E-06  7.04E-04  1.17E-02  0.87927
   1440.    6.944  3.41E-07  7.07E-05  3.04E-06  6.30E-04  0.00E+00  0.00E+00  3.38E-06  7.01E-04  1.17E-02  0.87607
   1442.    6.935  3.45E-07  7.18E-05  3.01E-06  6.26E-04  0.00E+00  0.00E+00  3.36E-06  6.98E-04  1.17E-02  0.87304
   1444.    6.925  3.50E-07  7.30E-05  2.99E-06  6.23E-04  0.00E+00  0.00E+00  3.34E-06  6.96E-04  1.17E-02  0.86999
   1446.    6.916  3.55E-07  7.41E-05  2.96E-06  6.19E-04  0.00E+00  0.00E+00  3.31E-06  6.93E-04  1.18E-02  0.86706
   1448.    6.906  3.59E-07  7.52E-05  2.93E-06  6.15E-04  0.00E+00  0.00E+00  3.29E-06  6.90E-04  1.18E-02  0.86427
   1450.    6.897  3.63E-07  7.63E-05  2.91E-06  6.12E-04  0.00E+00  0.00E+00  3.27E-06  6.88E-04  1.18E-02  0.86143
   1452.    6.887  3.67E-07  7.73E-05  2.88E-06  6.08E-04  0.00E+00  0.00E+00  3.25E-06  6.85E-04  1.18E-02  0.85856
   1454.    6.878  3.71E-07  7.84E-05  2.86E-06  6.04E-04  0.00E+00  0.00E+00  3.23E-06  6.83E-04  1.18E-02  0.85570
   1456.    6.868  3.75E-07  7.95E-05  2.83E-06  6.00E-04  0.00E+00  0.00E+00  3.21E-06  6.80E-04  1.18E-02  0.85244
   1458.    6.859  3.79E-07  8.06E-05  2.80E-06  5.96E-04  0.00E+00  0.00E+00  3.18E-06  6.77E-04  1.18E-02  0.84865
   1460.    6.849  3.83E-07  8.17E-05  2.78E-06  5.92E-04  0.00E+00  0.00E+00  3.16E-06  6.74E-04  1.18E-02  0.84515
   1462.    6.840  3.87E-07  8.28E-05  2.75E-06  5.88E-04  0.00E+00  0.00E+00  3.14E-06  6.70E-04  1.18E-02  0.84137
   1464.    6.831  3.91E-07  8.39E-05  2.72E-06  5.83E-04  0.00E+00  0.00E+00  3.11E-06  6.67E-04  1.18E-02  0.83757
   1466.    6.821  3.95E-07  8.48E-05  2.70E-06  5.79E-04  0.00E+00  0.00E+00  3.09E-06  6.64E-04  1.18E-02  0.83423
   1468.    6.812  3.97E-07  8.56E-05  2.67E-06  5.76E-04  0.00E+00  0.00E+00  3.07E-06  6.61E-04  1.18E-02  0.83133
   1470.    6.803  4.00E-07  8.64E-05  2.65E-06  5.72E-04  0.00E+00  0.00E+00  3.05E-06  6.58E-04  1.18E-02  0.82821
   1472.    6.793  4.03E-07  8.72E-05  2.62E-06  5.69E-04  0.00E+00  0.00E+00  3.03E-06  6.56E-04  1.18E-02  0.82559
   1474.    6.784  4.06E-07  8.81E-05  2.60E-06  5.65E-04  0.00E+00  0.00E+00  3.01E-06  6.53E-04  1.18E-02  0.82275
   1476.    6.775  4.09E-07  8.92E-05  2.58E-06  5.61E-04  0.00E+00  0.00E+00  2.99E-06  6.50E-04  1.18E-02  0.81953
   1478.    6.766  4.14E-07  9.04E-05  2.55E-06  5.57E-04  0.00E+00  0.00E+00  2.96E-06  6.48E-04  1.19E-02  0.81593
   1480.    6.757  4.18E-07  9.15E-05  2.53E-06  5.53E-04  0.00E+00  0.00E+00  2.94E-06  6.45E-04  1.19E-02  0.81257
   1482.    6.748  4.17E-07  9.15E-05  2.50E-06  5.50E-04  0.00E+00  0.00E+00  2.92E-06  6.42E-04  1.19E-02  0.81035
   1484.    6.739  4.14E-07  9.12E-05  2.49E-06  5.48E-04  0.00E+00  0.00E+00  2.90E-06  6.39E-04  1.19E-02  0.80883
   1486.    6.729  4.12E-07  9.10E-05  2.47E-06  5.45E-04  0.00E+00  0.00E+00  2.88E-06  6.36E-04  1.19E-02  0.80726
   1488.    6.720  4.09E-07  9.06E-05  2.45E-06  5.42E-04  0.00E+00  0.00E+00  2.86E-06  6.33E-04  1.19E-02  0.80572
   1490.    6.711  4.08E-07  9.05E-05  2.43E-06  5.40E-04  0.00E+00  0.00E+00  2.84E-06  6.30E-04  1.19E-02  0.80395
   1492.    6.702  4.11E-07  9.14E-05  2.41E-06  5.36E-04  0.00E+00  0.00E+00  2.82E-06  6.27E-04  1.19E-02  0.80080
   1494.    6.693  4.15E-07  9.25E-05  2.38E-06  5.32E-04  0.00E+00  0.00E+00  2.80E-06  6.24E-04  1.19E-02  0.79721
   1496.    6.684  4.18E-07  9.36E-05  2.36E-06  5.28E-04  0.00E+00  0.00E+00  2.78E-06  6.22E-04  1.19E-02  0.79391
   1498.    6.676  4.21E-07  9.45E-05  2.34E-06  5.25E-04  0.00E+00  0.00E+00  2.76E-06  6.19E-04  1.19E-02  0.79086
   1500.    6.667  4.24E-07  9.54E-05  2.32E-06  5.21E-04  0.00E+00  0.00E+00  2.74E-06  6.17E-04  1.19E-02  0.78781
  iv         1505
1                                             RADIANCE(WATTS/CM2-STER-XXX)
0  FREQ   WAVLEN    PATH THERMAL      SURFACE EMISSION    SURFACE REFLECTED     TOTAL RADIANCE   INTEGRAL    TOTAL
  (CM-1) (MICRN)    (CM-1)   (MICRN)    (CM-1)   (MICRN)    (CM-1)   (MICRN)    (CM-1)   (MICRN)    (CM-1)   TRANS

   1502.    6.658  4.25E-07  9.59E-05  2.30E-06  5.18E-04  0.00E+00  0.00E+00  2.72E-06  6.14E-04  1.19E-02  0.78590
   1504.    6.649  4.25E-07  9.62E-05  2.28E-06  5.16E-04  0.00E+00  0.00E+00  2.70E-06  6.12E-04  1.19E-02  0.78417
   1506.    6.640  4.26E-07  9.65E-05  2.26E-06  5.13E-04  0.00E+00  0.00E+00  2.69E-06  6.09E-04  1.19E-02  0.78227
   1508.    6.631  4.26E-07  9.68E-05  2.24E-06  5.10E-04  0.00E+00  0.00E+00  2.67E-06  6.07E-04  1.19E-02  0.78064
   1510.    6.623  4.26E-07  9.71E-05  2.23E-06  5.08E-04  0.00E+00  0.00E+00  2.65E-06  6.05E-04  1.19E-02  0.77885
   1512.    6.614  4.29E-07  9.80E-05  2.20E-06  5.03E-04  0.00E+00  0.00E+00  2.63E-06  6.01E-04  1.19E-02  0.77471
   1514.    6.605  4.31E-07  9.89E-05  2.18E-06  4.99E-04  0.00E+00  0.00E+00  2.61E-06  5.98E-04  1.20E-02  0.77020
   1516.    6.596  4.34E-07  9.98E-05  2.15E-06  4.94E-04  0.00E+00  0.00E+00  2.59E-06  5.94E-04  1.20E-02  0.76551
   1518.    6.588  4.37E-07  1.01E-04  2.12E-06  4.90E-04  0.00E+00  0.00E+00  2.56E-06  5.90E-04  1.20E-02  0.76040
   1520.    6.579  4.40E-07  1.02E-04  2.10E-06  4.85E-04  0.00E+00  0.00E+00  2.54E-06  5.87E-04  1.20E-02  0.75546
   1522.    6.570  4.43E-07  1.03E-04  2.07E-06  4.80E-04  0.00E+00  0.00E+00  2.52E-06  5.83E-04  1.20E-02  0.75032
   1524.    6.562  4.46E-07  1.04E-04  2.05E-06  4.75E-04  0.00E+00  0.00E+00  2.49E-06  5.79E-04  1.20E-02  0.74491
   1526.    6.553  4.50E-07  1.05E-04  2.02E-06  4.70E-04  0.00E+00  0.00E+00  2.47E-06  5.75E-04  1.20E-02  0.73946
   1528.    6.545  4.55E-07  1.06E-04  1.99E-06  4.65E-04  0.00E+00  0.00E+00  2.45E-06  5.72E-04  1.20E-02  0.73394
   1530.    6.536  4.61E-07  1.08E-04  1.97E-06  4.60E-04  0.00E+00  0.00E+00  2.43E-06  5.68E-04  1.20E-02  0.72763
   1532.    6.527  4.71E-07  1.10E-04  1.93E-06  4.53E-04  0.00E+00  0.00E+00  2.40E-06  5.64E-04  1.20E-02  0.71928
   1534.    6.519  4.81E-07  1.13E-04  1.90E-06  4.46E-04  0.00E+00  0.00E+00  2.38E-06  5.59E-04  1.20E-02  0.71015
   1536.    6.510  4.91E-07  1.16E-04  1.86E-06  4.39E-04  0.00E+00  0.00E+00  2.35E-06  5.55E-04  1.20E-02  0.70114
   1538.    6.502  5.00E-07  1.18E-04  1.83E-06  4.32E-04  0.00E+00  0.00E+00  2.33E-06  5.51E-04  1.20E-02  0.69227
   1540.    6.494  5.08E-07  1.21E-04  1.80E-06  4.26E-04  0.00E+00  0.00E+00  2.30E-06  5.46E-04  1.20E-02  0.68398
   1542.    6.485  5.11E-07  1.22E-04  1.77E-06  4.22E-04  0.00E+00  0.00E+00  2.28E-06  5.43E-04  1.20E-02  0.67948
   1544.    6.477  5.13E-07  1.22E-04  1.75E-06  4.18E-04  0.00E+00  0.00E+00  2.27E-06  5.41E-04  1.20E-02  0.67584
   1546.    6.468  5.15E-07  1.23E-04  1.73E-06  4.15E-04  0.00E+00  0.00E+00  2.25E-06  5.38E-04  1.20E-02  0.67210
   1548.    6.460  5.17E-07  1.24E-04  1.71E-06  4.11E-04  0.00E+00  0.00E+00  2.23E-06  5.35E-04  1.20E-02  0.66830
   1550.    6.452  5.19E-07  1.25E-04  1.70E-06  4.07E-04  0.00E+00  0.00E+00  2.21E-06  5.32E-04  1.20E-02  0.66469
   1552.    6.443  5.19E-07  1.25E-04  1.68E-06  4.05E-04  0.00E+00  0.00E+00  2.20E-06  5.30E-04  1.20E-02  0.66217
   1554.    6.435  5.20E-07  1.25E-04  1.66E-06  4.02E-04  0.00E+00  0.00E+00  2.18E-06  5.27E-04  1.20E-02  0.65932
   1556.    6.427  5.14E-07  1.24E-04  1.66E-06  4.01E-04  0.00E+00  0.00E+00  2.17E-06  5.26E-04  1.21E-02  0.66122
   1558.    6.418  5.02E-07  1.22E-04  1.67E-06  4.04E-04  0.00E+00  0.00E+00  2.17E-06  5.26E-04  1.21E-02  0.66823
   1560.    6.410  4.91E-07  1.19E-04  1.67E-06  4.07E-04  0.00E+00  0.00E+00  2.16E-06  5.26E-04  1.21E-02  0.67439
   1562.    6.402  4.81E-07  1.17E-04  1.67E-06  4.08E-04  0.00E+00  0.00E+00  2.16E-06  5.26E-04  1.21E-02  0.67921
   1564.    6.394  4.72E-07  1.15E-04  1.68E-06  4.10E-04  0.00E+00  0.00E+00  2.15E-06  5.25E-04  1.21E-02  0.68383
   1566.    6.386  4.63E-07  1.13E-04  1.68E-06  4.11E-04  0.00E+00  0.00E+00  2.14E-06  5.25E-04  1.21E-02  0.68868
   1568.    6.378  4.53E-07  1.11E-04  1.68E-06  4.13E-04  0.00E+00  0.00E+00  2.13E-06  5.25E-04  1.21E-02  0.69373
   1570.    6.369  4.45E-07  1.10E-04  1.68E-06  4.15E-04  0.00E+00  0.00E+00  2.13E-06  5.24E-04  1.21E-02  0.69857
   1572.    6.361  4.37E-07  1.08E-04  1.68E-06  4.16E-04  0.00E+00  0.00E+00  2.12E-06  5.24E-04  1.21E-02  0.70285
   1574.    6.353  4.30E-07  1.07E-04  1.68E-06  4.17E-04  0.00E+00  0.00E+00  2.11E-06  5.23E-04  1.21E-02  0.70704
   1576.    6.345  4.24E-07  1.05E-04  1.68E-06  4.17E-04  0.00E+00  0.00E+00  2.10E-06  5.23E-04  1.21E-02  0.71007
   1578.    6.337  4.20E-07  1.04E-04  1.68E-06  4.17E-04  0.00E+00  0.00E+00  2.09E-06  5.22E-04  1.21E-02  0.71201
   1580.    6.329  4.15E-07  1.04E-04  1.67E-06  4.17E-04  0.00E+00  0.00E+00  2.09E-06  5.21E-04  1.21E-02  0.71401
   1582.    6.321  4.10E-07  1.03E-04  1.67E-06  4.17E-04  0.00E+00  0.00E+00  2.08E-06  5.20E-04  1.21E-02  0.71618
   1584.    6.313  4.05E-07  1.02E-04  1.66E-06  4.17E-04  0.00E+00  0.00E+00  2.07E-06  5.19E-04  1.21E-02  0.71925
   1586.    6.305  4.00E-07  1.01E-04  1.66E-06  4.17E-04  0.00E+00  0.00E+00  2.06E-06  5.18E-04  1.21E-02  0.72159
   1588.    6.297  3.96E-07  9.97E-05  1.65E-06  4.17E-04  0.00E+00  0.00E+00  2.05E-06  5.17E-04  1.21E-02  0.72357
   1590.    6.289  3.91E-07  9.90E-05  1.65E-06  4.17E-04  0.00E+00  0.00E+00  2.04E-06  5.16E-04  1.21E-02  0.72531
   1592.    6.281  3.89E-07  9.85E-05  1.64E-06  4.15E-04  0.00E+00  0.00E+00  2.03E-06  5.14E-04  1.21E-02  0.72529
   1594.    6.274  3.86E-07  9.81E-05  1.63E-06  4.14E-04  0.00E+00  0.00E+00  2.02E-06  5.12E-04  1.21E-02  0.72534
   1596.    6.266  3.83E-07  9.76E-05  1.62E-06  4.13E-04  0.00E+00  0.00E+00  2.00E-06  5.10E-04  1.21E-02  0.72566
   1598.    6.258  3.81E-07  9.72E-05  1.61E-06  4.11E-04  0.00E+00  0.00E+00  1.99E-06  5.09E-04  1.21E-02  0.72567
   1600.    6.250  3.78E-07  9.67E-05  1.60E-06  4.10E-04  0.00E+00  0.00E+00  1.98E-06  5.07E-04  1.21E-02  0.72579
  iv         1605
1                                             RADIANCE(WATTS/CM2-STER-XXX)
0  FREQ   WAVLEN    PATH THERMAL      SURFACE EMISSION    SURFACE REFLECTED     TOTAL RADIANCE   INTEGRAL    TOTAL
  (CM-1) (MICRN)    (CM-1)   (MICRN)    (CM-1)   (MICRN)    (CM-1)   (MICRN)    (CM-1)   (MICRN)    (CM-1)   TRANS

   1602.    6.242  3.74E-07  9.61E-05  1.59E-06  4.09E-04  0.00E+00  0.00E+00  1.97E-06  5.05E-04  1.21E-02  0.72658
   1604.    6.234  3.71E-07  9.55E-05  1.59E-06  4.08E-04  0.00E+00  0.00E+00  1.96E-06  5.03E-04  1.22E-02  0.72689
   1606.    6.227  3.67E-07  9.47E-05  1.58E-06  4.07E-04  0.00E+00  0.00E+00  1.95E-06  5.02E-04  1.22E-02  0.72845
   1608.    6.219  3.63E-07  9.40E-05  1.57E-06  4.07E-04  0.00E+00  0.00E+00  1.94E-06  5.01E-04  1.22E-02  0.72941
   1610.    6.211  3.60E-07  9.32E-05  1.57E-06  4.06E-04  0.00E+00  0.00E+00  1.93E-06  4.99E-04  1.22E-02  0.73051
   1612.    6.203  3.55E-07  9.23E-05  1.56E-06  4.06E-04  0.00E+00  0.00E+00  1.92E-06  4.98E-04  1.22E-02  0.73254
   1614.    6.196  3.51E-07  9.14E-05  1.56E-06  4.05E-04  0.00E+00  0.00E+00  1.91E-06  4.97E-04  1.22E-02  0.73440
   1616.    6.188  3.46E-07  9.04E-05  1.55E-06  4.05E-04  0.00E+00  0.00E+00  1.90E-06  4.95E-04  1.22E-02  0.73666
   1618.    6.180  3.41E-07  8.94E-05  1.55E-06  4.05E-04  0.00E+00  0.00E+00  1.89E-06  4.94E-04  1.22E-02  0.73927
   1620.    6.173  3.37E-07  8.84E-05  1.54E-06  4.05E-04  0.00E+00  0.00E+00  1.88E-06  4.93E-04  1.22E-02  0.74169
   1622.    6.165  3.32E-07  8.73E-05  1.54E-06  4.05E-04  0.00E+00  0.00E+00  1.87E-06  4.93E-04  1.22E-02  0.74484
   1624.    6.158  3.27E-07  8.62E-05  1.54E-06  4.06E-04  0.00E+00  0.00E+00  1.86E-06  4.92E-04  1.22E-02  0.74784
   1626.    6.150  3.22E-07  8.51E-05  1.54E-06  4.06E-04  0.00E+00  0.00E+00  1.86E-06  4.91E-04  1.22E-02  0.75116
   1628.    6.143  3.17E-07  8.39E-05  1.53E-06  4.07E-04  0.00E+00  0.00E+00  1.85E-06  4.90E-04  1.22E-02  0.75483
   1630.    6.135  3.11E-07  8.27E-05  1.53E-06  4.07E-04  0.00E+00  0.00E+00  1.84E-06  4.90E-04  1.22E-02  0.75828
   1632.    6.127  3.05E-07  8.13E-05  1.53E-06  4.08E-04  0.00E+00  0.00E+00  1.84E-06  4.89E-04  1.22E-02  0.76211
   1634.    6.120  2.99E-07  7.98E-05  1.53E-06  4.08E-04  0.00E+00  0.00E+00  1.83E-06  4.88E-04  1.22E-02  0.76599
   1636.    6.112  2.93E-07  7.84E-05  1.53E-06  4.09E-04  0.00E+00  0.00E+00  1.82E-06  4.87E-04  1.22E-02  0.76949
   1638.    6.105  2.86E-07  7.68E-05  1.53E-06  4.10E-04  0.00E+00  0.00E+00  1.81E-06  4.86E-04  1.22E-02  0.77392
   1640.    6.098  2.80E-07  7.53E-05  1.53E-06  4.10E-04  0.00E+00  0.00E+00  1.81E-06  4.86E-04  1.22E-02  0.77795
   1642.    6.090  2.74E-07  7.40E-05  1.52E-06  4.11E-04  0.00E+00  0.00E+00  1.80E-06  4.85E-04  1.22E-02  0.78222
   1644.    6.083  2.69E-07  7.27E-05  1.52E-06  4.12E-04  0.00E+00  0.00E+00  1.79E-06  4.85E-04  1.22E-02  0.78653
   1646.    6.075  2.64E-07  7.15E-05  1.52E-06  4.13E-04  0.00E+00  0.00E+00  1.79E-06  4.84E-04  1.22E-02  0.79039
   1648.    6.068  2.59E-07  7.03E-05  1.52E-06  4.13E-04  0.00E+00  0.00E+00  1.78E-06  4.84E-04  1.22E-02  0.79486
   1650.    6.061  2.54E-07  6.91E-05  1.52E-06  4.14E-04  0.00E+00  0.00E+00  1.77E-06  4.83E-04  1.22E-02  0.79897
   1652.    6.053  2.49E-07  6.80E-05  1.52E-06  4.15E-04  0.00E+00  0.00E+00  1.77E-06  4.83E-04  1.22E-02  0.80292
   1654.    6.046  2.44E-07  6.68E-05  1.52E-06  4.15E-04  0.00E+00  0.00E+00  1.76E-06  4.82E-04  1.22E-02  0.80685
   1656.    6.039  2.39E-07  6.57E-05  1.52E-06  4.16E-04  0.00E+00  0.00E+00  1.76E-06  4.81E-04  1.22E-02  0.81081
   1658.    6.031  2.34E-07  6.43E-05  1.52E-06  4.17E-04  0.00E+00  0.00E+00  1.75E-06  4.81E-04  1.23E-02  0.81524
   1660.    6.024  2.28E-07  6.29E-05  1.51E-06  4.17E-04  0.00E+00  0.00E+00  1.74E-06  4.80E-04  1.23E-02  0.81965
   1662.    6.017  2.23E-07  6.16E-05  1.51E-06  4.18E-04  0.00E+00  0.00E+00  1.74E-06  4.80E-04  1.23E-02  0.82394
   1664.    6.010  2.18E-07  6.03E-05  1.51E-06  4.19E-04  0.00E+00  0.00E+00  1.73E-06  4.79E-04  1.23E-02  0.82822
   1666.    6.002  2.13E-07  5.90E-05  1.51E-06  4.19E-04  0.00E+00  0.00E+00  1.72E-06  4.78E-04  1.23E-02  0.83247
   1668.    5.995  2.07E-07  5.77E-05  1.51E-06  4.20E-04  0.00E+00  0.00E+00  1.72E-06  4.78E-04  1.23E-02  0.83684
   1670.    5.988  2.02E-07  5.64E-05  1.51E-06  4.21E-04  0.00E+00  0.00E+00  1.71E-06  4.77E-04  1.23E-02  0.84121
   1672.    5.981  1.98E-07  5.53E-05  1.51E-06  4.21E-04  0.00E+00  0.00E+00  1.70E-06  4.76E-04  1.23E-02  0.84500
   1674.    5.974  1.93E-07  5.42E-05  1.50E-06  4.21E-04  0.00E+00  0.00E+00  1.70E-06  4.75E-04  1.23E-02  0.84870
   1676.    5.967  1.89E-07  5.31E-05  1.50E-06  4.22E-04  0.00E+00  0.00E+00  1.69E-06  4.75E-04  1.23E-02  0.85228
   1678.    5.959  1.85E-07  5.21E-05  1.50E-06  4.22E-04  0.00E+00  0.00E+00  1.68E-06  4.74E-04  1.23E-02  0.85585
   1680.    5.952  1.81E-07  5.10E-05  1.50E-06  4.22E-04  0.00E+00  0.00E+00  1.68E-06  4.73E-04  1.23E-02  0.85949
   1682.    5.945  1.77E-07  5.00E-05  1.49E-06  4.22E-04  0.00E+00  0.00E+00  1.67E-06  4.72E-04  1.23E-02  0.86317
   1684.    5.938  1.72E-07  4.89E-05  1.49E-06  4.23E-04  0.00E+00  0.00E+00  1.66E-06  4.71E-04  1.23E-02  0.86687
   1686.    5.931  1.69E-07  4.81E-05  1.49E-06  4.22E-04  0.00E+00  0.00E+00  1.65E-06  4.70E-04  1.23E-02  0.86934
   1688.    5.924  1.67E-07  4.75E-05  1.48E-06  4.21E-04  0.00E+00  0.00E+00  1.65E-06  4.69E-04  1.23E-02  0.87073
   1690.    5.917  1.64E-07  4.68E-05  1.47E-06  4.20E-04  0.00E+00  0.00E+00  1.64E-06  4.67E-04  1.23E-02  0.87207
   1692.    5.910  1.61E-07  4.62E-05  1.47E-06  4.20E-04  0.00E+00  0.00E+00  1.63E-06  4.66E-04  1.23E-02  0.87342
   1694.    5.903  1.59E-07  4.56E-05  1.46E-06  4.19E-04  0.00E+00  0.00E+00  1.62E-06  4.64E-04  1.23E-02  0.87476
   1696.    5.896  1.57E-07  4.51E-05  1.45E-06  4.18E-04  0.00E+00  0.00E+00  1.61E-06  4.63E-04  1.23E-02  0.87589
   1698.    5.889  1.55E-07  4.46E-05  1.44E-06  4.17E-04  0.00E+00  0.00E+00  1.60E-06  4.61E-04  1.23E-02  0.87688
   1700.    5.882  1.53E-07  4.41E-05  1.44E-06  4.15E-04  0.00E+00  0.00E+00  1.59E-06  4.60E-04  1.23E-02  0.87783
  iv         1705
1                                             RADIANCE(WATTS/CM2-STER-XXX)
0  FREQ   WAVLEN    PATH THERMAL      SURFACE EMISSION    SURFACE REFLECTED     TOTAL RADIANCE   INTEGRAL    TOTAL
  (CM-1) (MICRN)    (CM-1)   (MICRN)    (CM-1)   (MICRN)    (CM-1)   (MICRN)    (CM-1)   (MICRN)    (CM-1)   TRANS

   1702.    5.875  1.51E-07  4.37E-05  1.43E-06  4.14E-04  0.00E+00  0.00E+00  1.58E-06  4.58E-04  1.23E-02  0.87868
   1704.    5.869  1.49E-07  4.34E-05  1.42E-06  4.13E-04  0.00E+00  0.00E+00  1.57E-06  4.57E-04  1.23E-02  0.87950
   1706.    5.862  1.48E-07  4.30E-05  1.42E-06  4.12E-04  0.00E+00  0.00E+00  1.56E-06  4.55E-04  1.23E-02  0.88035
   1708.    5.855  1.46E-07  4.27E-05  1.41E-06  4.11E-04  0.00E+00  0.00E+00  1.55E-06  4.54E-04  1.23E-02  0.88127
   1710.    5.848  1.45E-07  4.23E-05  1.40E-06  4.10E-04  0.00E+00  0.00E+00  1.55E-06  4.52E-04  1.23E-02  0.88216
   1712.    5.841  1.43E-07  4.20E-05  1.39E-06  4.09E-04  0.00E+00  0.00E+00  1.54E-06  4.51E-04  1.23E-02  0.88293
   1714.    5.834  1.42E-07  4.16E-05  1.39E-06  4.07E-04  0.00E+00  0.00E+00  1.53E-06  4.49E-04  1.23E-02  0.88368
   1716.    5.828  1.40E-07  4.11E-05  1.38E-06  4.07E-04  0.00E+00  0.00E+00  1.52E-06  4.48E-04  1.23E-02  0.88520
   1718.    5.821  1.37E-07  4.05E-05  1.38E-06  4.06E-04  0.00E+00  0.00E+00  1.51E-06  4.47E-04  1.24E-02  0.88749
   1720.    5.814  1.35E-07  3.98E-05  1.37E-06  4.06E-04  0.00E+00  0.00E+00  1.51E-06  4.45E-04  1.24E-02  0.88977
   1722.    5.807  1.32E-07  3.91E-05  1.37E-06  4.05E-04  0.00E+00  0.00E+00  1.50E-06  4.44E-04  1.24E-02  0.89200
   1724.    5.800  1.30E-07  3.85E-05  1.36E-06  4.04E-04  0.00E+00  0.00E+00  1.49E-06  4.43E-04  1.24E-02  0.89421
   1726.    5.794  1.26E-07  3.76E-05  1.36E-06  4.04E-04  0.00E+00  0.00E+00  1.48E-06  4.42E-04  1.24E-02  0.89746
   1728.    5.787  1.22E-07  3.64E-05  1.36E-06  4.05E-04  0.00E+00  0.00E+00  1.48E-06  4.41E-04  1.24E-02  0.90172
   1730.    5.780  1.18E-07  3.52E-05  1.35E-06  4.05E-04  0.00E+00  0.00E+00  1.47E-06  4.40E-04  1.24E-02  0.90590
   1732.    5.774  1.13E-07  3.40E-05  1.35E-06  4.05E-04  0.00E+00  0.00E+00  1.46E-06  4.39E-04  1.24E-02  0.90954
   1734.    5.767  1.10E-07  3.29E-05  1.35E-06  4.05E-04  0.00E+00  0.00E+00  1.46E-06  4.38E-04  1.24E-02  0.91310
   1736.    5.760  1.07E-07  3.22E-05  1.34E-06  4.05E-04  0.00E+00  0.00E+00  1.45E-06  4.37E-04  1.24E-02  0.91550
   1738.    5.754  1.05E-07  3.17E-05  1.34E-06  4.04E-04  0.00E+00  0.00E+00  1.44E-06  4.35E-04  1.24E-02  0.91675
   1740.    5.747  1.03E-07  3.13E-05  1.33E-06  4.03E-04  0.00E+00  0.00E+00  1.43E-06  4.34E-04  1.24E-02  0.91791
   1742.    5.741  1.02E-07  3.10E-05  1.32E-06  4.01E-04  0.00E+00  0.00E+00  1.43E-06  4.32E-04  1.24E-02  0.91857
   1744.    5.734  1.01E-07  3.08E-05  1.32E-06  4.00E-04  0.00E+00  0.00E+00  1.42E-06  4.31E-04  1.24E-02  0.91914
   1746.    5.727  1.00E-07  3.06E-05  1.31E-06  3.99E-04  0.00E+00  0.00E+00  1.41E-06  4.29E-04  1.24E-02  0.91955
   1748.    5.721  9.95E-08  3.04E-05  1.30E-06  3.97E-04  0.00E+00  0.00E+00  1.40E-06  4.28E-04  1.24E-02  0.91979
   1750.    5.714  9.87E-08  3.02E-05  1.29E-06  3.96E-04  0.00E+00  0.00E+00  1.39E-06  4.26E-04  1.24E-02  0.92000
   1752.    5.708  9.81E-08  3.01E-05  1.28E-06  3.94E-04  0.00E+00  0.00E+00  1.38E-06  4.24E-04  1.24E-02  0.92009
   1754.    5.701  9.74E-08  3.00E-05  1.28E-06  3.93E-04  0.00E+00  0.00E+00  1.37E-06  4.23E-04  1.24E-02  0.92015
   1756.    5.695  9.68E-08  2.99E-05  1.27E-06  3.91E-04  0.00E+00  0.00E+00  1.37E-06  4.21E-04  1.24E-02  0.92022
   1758.    5.688  9.62E-08  2.97E-05  1.26E-06  3.90E-04  0.00E+00  0.00E+00  1.36E-06  4.20E-04  1.24E-02  0.92029
   1760.    5.682  9.56E-08  2.96E-05  1.25E-06  3.88E-04  0.00E+00  0.00E+00  1.35E-06  4.18E-04  1.24E-02  0.92033
   1762.    5.675  9.51E-08  2.95E-05  1.25E-06  3.87E-04  0.00E+00  0.00E+00  1.34E-06  4.16E-04  1.24E-02  0.92025
   1764.    5.669  9.46E-08  2.94E-05  1.24E-06  3.85E-04  0.00E+00  0.00E+00  1.33E-06  4.15E-04  1.24E-02  0.92015
   1766.    5.663  9.41E-08  2.94E-05  1.23E-06  3.84E-04  0.00E+00  0.00E+00  1.32E-06  4.13E-04  1.24E-02  0.92005
   1768.    5.656  9.37E-08  2.93E-05  1.22E-06  3.82E-04  0.00E+00  0.00E+00  1.32E-06  4.11E-04  1.24E-02  0.91994
   1770.    5.650  9.32E-08  2.92E-05  1.21E-06  3.81E-04  0.00E+00  0.00E+00  1.31E-06  4.10E-04  1.24E-02  0.91984
   1772.    5.643  9.27E-08  2.91E-05  1.21E-06  3.79E-04  0.00E+00  0.00E+00  1.30E-06  4.08E-04  1.24E-02  0.91974
   1774.    5.637  9.22E-08  2.90E-05  1.20E-06  3.77E-04  0.00E+00  0.00E+00  1.29E-06  4.07E-04  1.24E-02  0.91964
   1776.    5.631  9.18E-08  2.89E-05  1.19E-06  3.76E-04  0.00E+00  0.00E+00  1.28E-06  4.05E-04  1.24E-02  0.91954
   1778.    5.624  9.13E-08  2.89E-05  1.18E-06  3.74E-04  0.00E+00  0.00E+00  1.28E-06  4.03E-04  1.24E-02  0.91944
   1780.    5.618  9.08E-08  2.88E-05  1.18E-06  3.73E-04  0.00E+00  0.00E+00  1.27E-06  4.02E-04  1.24E-02  0.91934
   1782.    5.612  9.04E-08  2.87E-05  1.17E-06  3.71E-04  0.00E+00  0.00E+00  1.26E-06  4.00E-04  1.24E-02  0.91924
   1784.    5.605  8.99E-08  2.86E-05  1.16E-06  3.70E-04  0.00E+00  0.00E+00  1.25E-06  3.98E-04  1.24E-02  0.91914
   1786.    5.599  8.95E-08  2.85E-05  1.15E-06  3.68E-04  0.00E+00  0.00E+00  1.24E-06  3.97E-04  1.24E-02  0.91904
   1788.    5.593  8.90E-08  2.85E-05  1.15E-06  3.67E-04  0.00E+00  0.00E+00  1.24E-06  3.95E-04  1.24E-02  0.91894
   1790.    5.587  8.85E-08  2.84E-05  1.14E-06  3.65E-04  0.00E+00  0.00E+00  1.23E-06  3.94E-04  1.24E-02  0.91884
   1792.    5.580  8.81E-08  2.83E-05  1.13E-06  3.64E-04  0.00E+00  0.00E+00  1.22E-06  3.92E-04  1.25E-02  0.91874
   1794.    5.574  8.76E-08  2.82E-05  1.13E-06  3.62E-04  0.00E+00  0.00E+00  1.21E-06  3.91E-04  1.25E-02  0.91864
   1796.    5.568  8.72E-08  2.81E-05  1.12E-06  3.61E-04  0.00E+00  0.00E+00  1.21E-06  3.89E-04  1.25E-02  0.91854
   1798.    5.562  8.67E-08  2.80E-05  1.11E-06  3.59E-04  0.00E+00  0.00E+00  1.20E-06  3.87E-04  1.25E-02  0.91844
   1800.    5.556  8.63E-08  2.80E-05  1.10E-06  3.58E-04  0.00E+00  0.00E+00  1.19E-06  3.86E-04  1.25E-02  0.91835
  iv         1805
1                                             RADIANCE(WATTS/CM2-STER-XXX)
0  FREQ   WAVLEN    PATH THERMAL      SURFACE EMISSION    SURFACE REFLECTED     TOTAL RADIANCE   INTEGRAL    TOTAL
  (CM-1) (MICRN)    (CM-1)   (MICRN)    (CM-1)   (MICRN)    (CM-1)   (MICRN)    (CM-1)   (MICRN)    (CM-1)   TRANS

   1802.    5.549  8.58E-08  2.79E-05  1.10E-06  3.56E-04  0.00E+00  0.00E+00  1.18E-06  3.84E-04  1.25E-02  0.91825
   1804.    5.543  8.54E-08  2.78E-05  1.09E-06  3.55E-04  0.00E+00  0.00E+00  1.18E-06  3.83E-04  1.25E-02  0.91815
   1806.    5.537  8.49E-08  2.77E-05  1.08E-06  3.53E-04  0.00E+00  0.00E+00  1.17E-06  3.81E-04  1.25E-02  0.91805
   1808.    5.531  8.45E-08  2.76E-05  1.08E-06  3.52E-04  0.00E+00  0.00E+00  1.16E-06  3.80E-04  1.25E-02  0.91795
   1810.    5.525  8.41E-08  2.75E-05  1.07E-06  3.50E-04  0.00E+00  0.00E+00  1.15E-06  3.78E-04  1.25E-02  0.91784
   1812.    5.519  8.36E-08  2.75E-05  1.06E-06  3.49E-04  0.00E+00  0.00E+00  1.15E-06  3.76E-04  1.25E-02  0.91774
   1814.    5.513  8.32E-08  2.74E-05  1.06E-06  3.48E-04  0.00E+00  0.00E+00  1.14E-06  3.75E-04  1.25E-02  0.91764
   1816.    5.507  8.28E-08  2.73E-05  1.05E-06  3.46E-04  0.00E+00  0.00E+00  1.13E-06  3.73E-04  1.25E-02  0.91754
   1818.    5.501  8.23E-08  2.72E-05  1.04E-06  3.45E-04  0.00E+00  0.00E+00  1.12E-06  3.72E-04  1.25E-02  0.91744
   1820.    5.495  8.19E-08  2.71E-05  1.04E-06  3.43E-04  0.00E+00  0.00E+00  1.12E-06  3.70E-04  1.25E-02  0.91735
   1822.    5.488  8.14E-08  2.70E-05  1.03E-06  3.42E-04  0.00E+00  0.00E+00  1.11E-06  3.69E-04  1.25E-02  0.91727
   1824.    5.482  8.10E-08  2.69E-05  1.02E-06  3.40E-04  0.00E+00  0.00E+00  1.10E-06  3.67E-04  1.25E-02  0.91720
   1826.    5.476  8.05E-08  2.69E-05  1.02E-06  3.39E-04  0.00E+00  0.00E+00  1.10E-06  3.66E-04  1.25E-02  0.91711
   1828.    5.470  8.01E-08  2.68E-05  1.01E-06  3.37E-04  0.00E+00  0.00E+00  1.09E-06  3.64E-04  1.25E-02  0.91706
   1830.    5.464  7.96E-08  2.67E-05  1.00E-06  3.36E-04  0.00E+00  0.00E+00  1.08E-06  3.63E-04  1.25E-02  0.91696
   1832.    5.459  7.92E-08  2.66E-05  9.97E-07  3.35E-04  0.00E+00  0.00E+00  1.08E-06  3.61E-04  1.25E-02  0.91690
   1834.    5.453  7.87E-08  2.65E-05  9.91E-07  3.33E-04  0.00E+00  0.00E+00  1.07E-06  3.60E-04  1.25E-02  0.91684
   1836.    5.447  7.83E-08  2.64E-05  9.84E-07  3.32E-04  0.00E+00  0.00E+00  1.06E-06  3.58E-04  1.25E-02  0.91675
   1838.    5.441  7.79E-08  2.63E-05  9.78E-07  3.30E-04  0.00E+00  0.00E+00  1.06E-06  3.57E-04  1.25E-02  0.91666
   1840.    5.435  7.74E-08  2.62E-05  9.72E-07  3.29E-04  0.00E+00  0.00E+00  1.05E-06  3.55E-04  1.25E-02  0.91660
   1842.    5.429  7.71E-08  2.61E-05  9.65E-07  3.28E-04  0.00E+00  0.00E+00  1.04E-06  3.54E-04  1.25E-02  0.91646
   1844.    5.423  7.67E-08  2.61E-05  9.59E-07  3.26E-04  0.00E+00  0.00E+00  1.04E-06  3.52E-04  1.25E-02  0.91629
   1846.    5.417  7.62E-08  2.60E-05  9.53E-07  3.25E-04  0.00E+00  0.00E+00  1.03E-06  3.51E-04  1.25E-02  0.91623
   1848.    5.411  7.59E-08  2.59E-05  9.47E-07  3.23E-04  0.00E+00  0.00E+00  1.02E-06  3.49E-04  1.25E-02  0.91593
   1850.    5.405  7.56E-08  2.59E-05  9.40E-07  3.22E-04  0.00E+00  0.00E+00  1.02E-06  3.48E-04  1.25E-02  0.91569
   1852.    5.400  7.51E-08  2.58E-05  9.34E-07  3.21E-04  0.00E+00  0.00E+00  1.01E-06  3.46E-04  1.25E-02  0.91572
   1854.    5.394  7.49E-08  2.57E-05  9.28E-07  3.19E-04  0.00E+00  0.00E+00  1.00E-06  3.45E-04  1.25E-02  0.91526
   1856.    5.388  7.45E-08  2.57E-05  9.22E-07  3.18E-04  0.00E+00  0.00E+00  9.96E-07  3.43E-04  1.25E-02  0.91498
   1858.    5.382  7.40E-08  2.56E-05  9.16E-07  3.16E-04  0.00E+00  0.00E+00  9.90E-07  3.42E-04  1.25E-02  0.91511
   1860.    5.376  7.38E-08  2.55E-05  9.10E-07  3.15E-04  0.00E+00  0.00E+00  9.84E-07  3.40E-04  1.25E-02  0.91458
   1862.    5.371  7.34E-08  2.55E-05  9.04E-07  3.13E-04  0.00E+00  0.00E+00  9.77E-07  3.39E-04  1.25E-02  0.91441
   1864.    5.365  7.29E-08  2.53E-05  8.98E-07  3.12E-04  0.00E+00  0.00E+00  9.71E-07  3.37E-04  1.25E-02  0.91464
   1866.    5.359  7.26E-08  2.53E-05  8.92E-07  3.11E-04  0.00E+00  0.00E+00  9.65E-07  3.36E-04  1.25E-02  0.91418
   1868.    5.353  7.21E-08  2.52E-05  8.87E-07  3.09E-04  0.00E+00  0.00E+00  9.59E-07  3.35E-04  1.25E-02  0.91423
   1870.    5.348  7.16E-08  2.50E-05  8.81E-07  3.08E-04  0.00E+00  0.00E+00  9.53E-07  3.33E-04  1.25E-02  0.91449
   1872.    5.342  7.13E-08  2.50E-05  8.75E-07  3.07E-04  0.00E+00  0.00E+00  9.46E-07  3.32E-04  1.25E-02  0.91414
   1874.    5.336  7.08E-08  2.49E-05  8.70E-07  3.05E-04  0.00E+00  0.00E+00  9.40E-07  3.30E-04  1.25E-02  0.91420
   1876.    5.330  7.04E-08  2.48E-05  8.64E-07  3.04E-04  0.00E+00  0.00E+00  9.34E-07  3.29E-04  1.25E-02  0.91408
   1878.    5.325  7.00E-08  2.47E-05  8.58E-07  3.03E-04  0.00E+00  0.00E+00  9.28E-07  3.27E-04  1.25E-02  0.91389
   1880.    5.319  7.01E-08  2.48E-05  8.52E-07  3.01E-04  0.00E+00  0.00E+00  9.22E-07  3.26E-04  1.25E-02  0.91279
   1882.    5.313  6.98E-08  2.47E-05  8.46E-07  3.00E-04  0.00E+00  0.00E+00  9.16E-07  3.24E-04  1.25E-02  0.91262
   1884.    5.308  6.93E-08  2.46E-05  8.41E-07  2.98E-04  0.00E+00  0.00E+00  9.10E-07  3.23E-04  1.25E-02  0.91267
   1886.    5.302  6.98E-08  2.48E-05  8.34E-07  2.97E-04  0.00E+00  0.00E+00  9.04E-07  3.21E-04  1.26E-02  0.91092
   1888.    5.297  6.93E-08  2.47E-05  8.29E-07  2.95E-04  0.00E+00  0.00E+00  8.98E-07  3.20E-04  1.26E-02  0.91117
   1890.    5.291  7.01E-08  2.50E-05  8.21E-07  2.93E-04  0.00E+00  0.00E+00  8.91E-07  3.18E-04  1.26E-02  0.90850
   1892.    5.285  7.09E-08  2.54E-05  8.13E-07  2.91E-04  0.00E+00  0.00E+00  8.84E-07  3.16E-04  1.26E-02  0.90556
   1894.    5.280  7.03E-08  2.52E-05  8.08E-07  2.90E-04  0.00E+00  0.00E+00  8.78E-07  3.15E-04  1.26E-02  0.90578
   1896.    5.274  7.35E-08  2.64E-05  7.95E-07  2.86E-04  0.00E+00  0.00E+00  8.69E-07  3.12E-04  1.26E-02  0.89685
   1898.    5.269  7.54E-08  2.72E-05  7.84E-07  2.82E-04  0.00E+00  0.00E+00  8.60E-07  3.10E-04  1.26E-02  0.89031
   1900.    5.263  7.38E-08  2.67E-05  7.81E-07  2.82E-04  0.00E+00  0.00E+00  8.55E-07  3.09E-04  1.26E-02  0.89298
  iv         1905
1                                             RADIANCE(WATTS/CM2-STER-XXX)
0  FREQ   WAVLEN    PATH THERMAL      SURFACE EMISSION    SURFACE REFLECTED     TOTAL RADIANCE   INTEGRAL    TOTAL
  (CM-1) (MICRN)    (CM-1)   (MICRN)    (CM-1)   (MICRN)    (CM-1)   (MICRN)    (CM-1)   (MICRN)    (CM-1)   TRANS

   1902.    5.258  7.95E-08  2.88E-05  7.61E-07  2.75E-04  0.00E+00  0.00E+00  8.41E-07  3.04E-04  1.26E-02  0.87543
   1904.    5.252  8.08E-08  2.93E-05  7.50E-07  2.72E-04  0.00E+00  0.00E+00  8.31E-07  3.01E-04  1.26E-02  0.86841
   1906.    5.247  7.80E-08  2.83E-05  7.51E-07  2.73E-04  0.00E+00  0.00E+00  8.29E-07  3.01E-04  1.26E-02  0.87492
   1908.    5.241  8.38E-08  3.05E-05  7.28E-07  2.65E-04  0.00E+00  0.00E+00  8.11E-07  2.95E-04  1.26E-02  0.85319
   1910.    5.236  8.44E-08  3.08E-05  7.17E-07  2.62E-04  0.00E+00  0.00E+00  8.01E-07  2.92E-04  1.26E-02  0.84629
   1912.    5.230  7.91E-08  2.89E-05  7.26E-07  2.65E-04  0.00E+00  0.00E+00  8.05E-07  2.94E-04  1.26E-02  0.86198
   1914.    5.225  8.39E-08  3.07E-05  7.03E-07  2.57E-04  0.00E+00  0.00E+00  7.87E-07  2.88E-04  1.26E-02  0.84027
   1916.    5.219  8.28E-08  3.04E-05  6.98E-07  2.56E-04  0.00E+00  0.00E+00  7.80E-07  2.86E-04  1.26E-02  0.83933
   1918.    5.214  8.26E-08  3.04E-05  6.97E-07  2.57E-04  0.00E+00  0.00E+00  7.80E-07  2.87E-04  1.26E-02  0.84481
   1920.    5.208  8.12E-08  3.00E-05  6.90E-07  2.54E-04  0.00E+00  0.00E+00  7.71E-07  2.84E-04  1.26E-02  0.84080
   1922.    5.203  7.58E-08  2.80E-05  6.98E-07  2.58E-04  0.00E+00  0.00E+00  7.74E-07  2.86E-04  1.26E-02  0.85685
   1924.    5.198  6.94E-08  2.57E-05  7.13E-07  2.64E-04  0.00E+00  0.00E+00  7.83E-07  2.90E-04  1.26E-02  0.88097
   1926.    5.192  6.90E-08  2.56E-05  7.07E-07  2.62E-04  0.00E+00  0.00E+00  7.76E-07  2.88E-04  1.26E-02  0.87923
   1928.    5.187  6.46E-08  2.40E-05  7.16E-07  2.66E-04  0.00E+00  0.00E+00  7.80E-07  2.90E-04  1.26E-02  0.89547
   1930.    5.181  6.16E-08  2.29E-05  7.20E-07  2.68E-04  0.00E+00  0.00E+00  7.82E-07  2.91E-04  1.26E-02  0.90690
   1932.    5.176  8.90E-08  3.32E-05  6.18E-07  2.31E-04  0.00E+00  0.00E+00  7.07E-07  2.64E-04  1.26E-02  0.78264
   1934.    5.171  1.01E-07  3.78E-05  5.83E-07  2.18E-04  0.00E+00  0.00E+00  6.84E-07  2.56E-04  1.26E-02  0.74344
   1936.    5.165  6.58E-08  2.47E-05  6.94E-07  2.60E-04  0.00E+00  0.00E+00  7.60E-07  2.85E-04  1.26E-02  0.89092
   1938.    5.160  5.99E-08  2.25E-05  7.02E-07  2.64E-04  0.00E+00  0.00E+00  7.62E-07  2.86E-04  1.26E-02  0.90760
   1940.    5.155  5.90E-08  2.22E-05  6.99E-07  2.63E-04  0.00E+00  0.00E+00  7.58E-07  2.85E-04  1.26E-02  0.90890
   1942.    5.149  5.81E-08  2.19E-05  6.96E-07  2.63E-04  0.00E+00  0.00E+00  7.54E-07  2.84E-04  1.26E-02  0.91141
   1944.    5.144  5.75E-08  2.17E-05  6.92E-07  2.62E-04  0.00E+00  0.00E+00  7.50E-07  2.83E-04  1.26E-02  0.91223
   1946.    5.139  5.71E-08  2.16E-05  6.88E-07  2.61E-04  0.00E+00  0.00E+00  7.45E-07  2.82E-04  1.26E-02  0.91262
   1948.    5.133  5.68E-08  2.16E-05  6.83E-07  2.59E-04  0.00E+00  0.00E+00  7.40E-07  2.81E-04  1.26E-02  0.91213
   1950.    5.128  5.68E-08  2.16E-05  6.78E-07  2.58E-04  0.00E+00  0.00E+00  7.35E-07  2.79E-04  1.26E-02  0.91119
   1952.    5.123  5.71E-08  2.18E-05  6.72E-07  2.56E-04  0.00E+00  0.00E+00  7.29E-07  2.78E-04  1.26E-02  0.90849
   1954.    5.118  5.67E-08  2.17E-05  6.67E-07  2.55E-04  0.00E+00  0.00E+00  7.24E-07  2.76E-04  1.26E-02  0.90872
   1956.    5.112  5.72E-08  2.19E-05  6.61E-07  2.53E-04  0.00E+00  0.00E+00  7.18E-07  2.75E-04  1.26E-02  0.90549
   1958.    5.107  5.66E-08  2.17E-05  6.57E-07  2.52E-04  0.00E+00  0.00E+00  7.14E-07  2.74E-04  1.26E-02  0.90699
   1960.    5.102  5.69E-08  2.19E-05  6.51E-07  2.50E-04  0.00E+00  0.00E+00  7.08E-07  2.72E-04  1.26E-02  0.90446
   1962.    5.097  5.59E-08  2.15E-05  6.49E-07  2.50E-04  0.00E+00  0.00E+00  7.05E-07  2.71E-04  1.26E-02  0.90708
   1964.    5.092  5.61E-08  2.16E-05  6.43E-07  2.48E-04  0.00E+00  0.00E+00  7.00E-07  2.70E-04  1.26E-02  0.90530
   1966.    5.086  5.50E-08  2.13E-05  6.41E-07  2.48E-04  0.00E+00  0.00E+00  6.96E-07  2.69E-04  1.26E-02  0.90805
   1968.    5.081  5.45E-08  2.11E-05  6.38E-07  2.47E-04  0.00E+00  0.00E+00  6.92E-07  2.68E-04  1.26E-02  0.90872
   1970.    5.076  5.44E-08  2.11E-05  6.33E-07  2.46E-04  0.00E+00  0.00E+00  6.87E-07  2.67E-04  1.26E-02  0.90798
   1972.    5.071  5.37E-08  2.09E-05  6.29E-07  2.45E-04  0.00E+00  0.00E+00  6.83E-07  2.66E-04  1.26E-02  0.90912
   1974.    5.066  5.29E-08  2.06E-05  6.26E-07  2.44E-04  0.00E+00  0.00E+00  6.79E-07  2.65E-04  1.26E-02  0.91061
   1976.    5.061  5.25E-08  2.05E-05  6.22E-07  2.43E-04  0.00E+00  0.00E+00  6.75E-07  2.64E-04  1.26E-02  0.91090
   1978.    5.056  5.22E-08  2.04E-05  6.18E-07  2.42E-04  0.00E+00  0.00E+00  6.71E-07  2.62E-04  1.26E-02  0.91080
   1980.    5.051  5.17E-08  2.03E-05  6.15E-07  2.41E-04  0.00E+00  0.00E+00  6.66E-07  2.61E-04  1.26E-02  0.91129
   1982.    5.045  5.13E-08  2.02E-05  6.11E-07  2.40E-04  0.00E+00  0.00E+00  6.62E-07  2.60E-04  1.26E-02  0.91135
   1984.    5.040  5.09E-08  2.01E-05  6.07E-07  2.39E-04  0.00E+00  0.00E+00  6.58E-07  2.59E-04  1.26E-02  0.91144
   1986.    5.035  5.06E-08  2.00E-05  6.03E-07  2.38E-04  0.00E+00  0.00E+00  6.53E-07  2.58E-04  1.26E-02  0.91155
   1988.    5.030  5.03E-08  1.99E-05  5.99E-07  2.37E-04  0.00E+00  0.00E+00  6.49E-07  2.57E-04  1.26E-02  0.91148
   1990.    5.025  5.00E-08  1.98E-05  5.95E-07  2.36E-04  0.00E+00  0.00E+00  6.45E-07  2.55E-04  1.26E-02  0.91137
   1992.    5.020  4.97E-08  1.97E-05  5.91E-07  2.34E-04  0.00E+00  0.00E+00  6.41E-07  2.54E-04  1.26E-02  0.91136
   1994.    5.015  4.94E-08  1.96E-05  5.87E-07  2.33E-04  0.00E+00  0.00E+00  6.36E-07  2.53E-04  1.26E-02  0.91137
   1996.    5.010  4.92E-08  1.96E-05  5.83E-07  2.32E-04  0.00E+00  0.00E+00  6.32E-07  2.52E-04  1.26E-02  0.91096
   1998.    5.005  4.89E-08  1.95E-05  5.79E-07  2.31E-04  0.00E+00  0.00E+00  6.28E-07  2.51E-04  1.26E-02  0.91076
   2000.    5.000  4.86E-08  1.94E-05  5.75E-07  2.30E-04  0.00E+00  0.00E+00  6.24E-07  2.49E-04  1.26E-02  0.91075
  iv         2005
1                                             RADIANCE(WATTS/CM2-STER-XXX)
0  FREQ   WAVLEN    PATH THERMAL      SURFACE EMISSION    SURFACE REFLECTED     TOTAL RADIANCE   INTEGRAL    TOTAL
  (CM-1) (MICRN)    (CM-1)   (MICRN)    (CM-1)   (MICRN)    (CM-1)   (MICRN)    (CM-1)   (MICRN)    (CM-1)   TRANS

   2002.    4.995  4.86E-08  1.95E-05  5.71E-07  2.29E-04  0.00E+00  0.00E+00  6.19E-07  2.48E-04  1.26E-02  0.90954
   2004.    4.990  4.84E-08  1.94E-05  5.67E-07  2.28E-04  0.00E+00  0.00E+00  6.15E-07  2.47E-04  1.26E-02  0.90925
   2006.    4.985  4.83E-08  1.94E-05  5.62E-07  2.26E-04  0.00E+00  0.00E+00  6.10E-07  2.46E-04  1.26E-02  0.90828
   2008.    4.980  4.79E-08  1.93E-05  5.58E-07  2.25E-04  0.00E+00  0.00E+00  6.06E-07  2.45E-04  1.26E-02  0.90846
   2010.    4.975  4.81E-08  1.94E-05  5.53E-07  2.24E-04  0.00E+00  0.00E+00  6.02E-07  2.43E-04  1.26E-02  0.90629
   2012.    4.970  4.77E-08  1.93E-05  5.50E-07  2.23E-04  0.00E+00  0.00E+00  5.98E-07  2.42E-04  1.26E-02  0.90684
   2014.    4.965  4.80E-08  1.95E-05  5.45E-07  2.21E-04  0.00E+00  0.00E+00  5.93E-07  2.40E-04  1.26E-02  0.90387
   2016.    4.960  4.75E-08  1.93E-05  5.42E-07  2.20E-04  0.00E+00  0.00E+00  5.89E-07  2.39E-04  1.26E-02  0.90488
   2018.    4.955  4.78E-08  1.94E-05  5.36E-07  2.18E-04  0.00E+00  0.00E+00  5.84E-07  2.38E-04  1.26E-02  0.90172
   2020.    4.950  4.76E-08  1.94E-05  5.32E-07  2.17E-04  0.00E+00  0.00E+00  5.80E-07  2.36E-04  1.26E-02  0.90077
   2022.    4.946  4.70E-08  1.92E-05  5.30E-07  2.16E-04  0.00E+00  0.00E+00  5.76E-07  2.36E-04  1.26E-02  0.90276
   2024.    4.941  4.69E-08  1.92E-05  5.26E-07  2.15E-04  0.00E+00  0.00E+00  5.72E-07  2.35E-04  1.26E-02  0.90208
   2026.    4.936  4.73E-08  1.94E-05  5.20E-07  2.13E-04  0.00E+00  0.00E+00  5.67E-07  2.33E-04  1.27E-02  0.89880
   2028.    4.931  4.75E-08  1.95E-05  5.16E-07  2.12E-04  0.00E+00  0.00E+00  5.63E-07  2.32E-04  1.27E-02  0.89751
   2030.    4.926  4.72E-08  1.94E-05  5.13E-07  2.11E-04  0.00E+00  0.00E+00  5.60E-07  2.31E-04  1.27E-02  0.89869
   2032.    4.921  4.86E-08  2.01E-05  5.06E-07  2.09E-04  0.00E+00  0.00E+00  5.55E-07  2.29E-04  1.27E-02  0.89245
   2034.    4.916  5.06E-08  2.09E-05  4.98E-07  2.06E-04  0.00E+00  0.00E+00  5.49E-07  2.27E-04  1.27E-02  0.88456
   2036.    4.912  5.32E-08  2.21E-05  4.85E-07  2.01E-04  0.00E+00  0.00E+00  5.38E-07  2.23E-04  1.27E-02  0.86621
   2038.    4.907  6.20E-08  2.57E-05  4.59E-07  1.91E-04  0.00E+00  0.00E+00  5.21E-07  2.16E-04  1.27E-02  0.82616
   2040.    4.902  6.08E-08  2.53E-05  4.61E-07  1.92E-04  0.00E+00  0.00E+00  5.22E-07  2.17E-04  1.27E-02  0.83516
   2042.    4.897  5.91E-08  2.47E-05  4.60E-07  1.92E-04  0.00E+00  0.00E+00  5.19E-07  2.17E-04  1.27E-02  0.83920
   2044.    4.892  6.76E-08  2.83E-05  4.32E-07  1.80E-04  0.00E+00  0.00E+00  4.99E-07  2.09E-04  1.27E-02  0.79269
   2046.    4.888  6.41E-08  2.68E-05  4.35E-07  1.82E-04  0.00E+00  0.00E+00  4.99E-07  2.09E-04  1.27E-02  0.80466
   2048.    4.883  7.42E-08  3.11E-05  3.97E-07  1.66E-04  0.00E+00  0.00E+00  4.71E-07  1.97E-04  1.27E-02  0.73800
   2050.    4.878  7.29E-08  3.06E-05  3.97E-07  1.67E-04  0.00E+00  0.00E+00  4.70E-07  1.97E-04  1.27E-02  0.74366
   2052.    4.873  8.54E-08  3.60E-05  3.48E-07  1.47E-04  0.00E+00  0.00E+00  4.34E-07  1.83E-04  1.27E-02  0.65757
   2054.    4.869  8.65E-08  3.65E-05  3.38E-07  1.43E-04  0.00E+00  0.00E+00  4.25E-07  1.79E-04  1.27E-02  0.64192
   2056.    4.864  7.61E-08  3.22E-05  3.70E-07  1.56E-04  0.00E+00  0.00E+00  4.46E-07  1.89E-04  1.27E-02  0.70778
   2058.    4.859  8.20E-08  3.47E-05  3.35E-07  1.42E-04  0.00E+00  0.00E+00  4.17E-07  1.76E-04  1.27E-02  0.64431
   2060.    4.854  8.32E-08  3.53E-05  3.23E-07  1.37E-04  0.00E+00  0.00E+00  4.06E-07  1.72E-04  1.27E-02  0.62611
   2062.    4.850  7.57E-08  3.22E-05  3.51E-07  1.49E-04  0.00E+00  0.00E+00  4.26E-07  1.81E-04  1.27E-02  0.68404
   2064.    4.845  8.35E-08  3.56E-05  3.08E-07  1.31E-04  0.00E+00  0.00E+00  3.92E-07  1.67E-04  1.27E-02  0.60616
   2066.    4.840  7.37E-08  3.15E-05  3.47E-07  1.48E-04  0.00E+00  0.00E+00  4.20E-07  1.79E-04  1.27E-02  0.68578
   2068.    4.836  7.18E-08  3.07E-05  3.42E-07  1.46E-04  0.00E+00  0.00E+00  4.14E-07  1.77E-04  1.27E-02  0.68126
   2070.    4.831  6.80E-08  2.92E-05  3.64E-07  1.56E-04  0.00E+00  0.00E+00  4.32E-07  1.85E-04  1.27E-02  0.72921
   2072.    4.826  6.61E-08  2.84E-05  3.60E-07  1.55E-04  0.00E+00  0.00E+00  4.26E-07  1.83E-04  1.27E-02  0.72732
   2074.    4.822  5.90E-08  2.54E-05  3.88E-07  1.67E-04  0.00E+00  0.00E+00  4.48E-07  1.93E-04  1.27E-02  0.78965
   2076.    4.817  6.89E-08  2.97E-05  2.78E-07  1.20E-04  0.00E+00  0.00E+00  3.47E-07  1.49E-04  1.27E-02  0.56759
   2078.    4.812  9.32E-08  4.03E-05  1.02E-07  4.39E-05  0.00E+00  0.00E+00  1.95E-07  8.42E-05  1.27E-02  0.20994
   2080.    4.808  7.39E-08  3.20E-05  3.40E-07  1.47E-04  0.00E+00  0.00E+00  4.14E-07  1.79E-04  1.27E-02  0.70570
   2082.    4.803  5.89E-08  2.55E-05  3.69E-07  1.60E-04  0.00E+00  0.00E+00  4.28E-07  1.86E-04  1.27E-02  0.77158
   2084.    4.798  5.42E-08  2.35E-05  3.79E-07  1.65E-04  0.00E+00  0.00E+00  4.33E-07  1.88E-04  1.27E-02  0.79763
   2086.    4.794  4.95E-08  2.16E-05  3.93E-07  1.71E-04  0.00E+00  0.00E+00  4.43E-07  1.93E-04  1.27E-02  0.83234
   2088.    4.789  4.65E-08  2.03E-05  3.99E-07  1.74E-04  0.00E+00  0.00E+00  4.45E-07  1.94E-04  1.27E-02  0.85004
   2090.    4.785  4.53E-08  1.98E-05  3.98E-07  1.74E-04  0.00E+00  0.00E+00  4.43E-07  1.94E-04  1.27E-02  0.85459
   2092.    4.780  5.25E-08  2.30E-05  3.80E-07  1.66E-04  0.00E+00  0.00E+00  4.32E-07  1.89E-04  1.27E-02  0.82070
   2094.    4.776  7.52E-08  3.30E-05  3.25E-07  1.42E-04  0.00E+00  0.00E+00  4.00E-07  1.75E-04  1.27E-02  0.70640
   2096.    4.771  4.33E-08  1.90E-05  3.99E-07  1.75E-04  0.00E+00  0.00E+00  4.43E-07  1.95E-04  1.27E-02  0.87512
   2098.    4.766  4.07E-08  1.79E-05  4.02E-07  1.77E-04  0.00E+00  0.00E+00  4.42E-07  1.95E-04  1.27E-02  0.88616
   2100.    4.762  4.10E-08  1.81E-05  3.97E-07  1.75E-04  0.00E+00  0.00E+00  4.38E-07  1.93E-04  1.27E-02  0.88259
  iv         2105
1                                             RADIANCE(WATTS/CM2-STER-XXX)
0  FREQ   WAVLEN    PATH THERMAL      SURFACE EMISSION    SURFACE REFLECTED     TOTAL RADIANCE   INTEGRAL    TOTAL
  (CM-1) (MICRN)    (CM-1)   (MICRN)    (CM-1)   (MICRN)    (CM-1)   (MICRN)    (CM-1)   (MICRN)    (CM-1)   TRANS

   2102.    4.757  4.16E-08  1.84E-05  3.93E-07  1.74E-04  0.00E+00  0.00E+00  4.34E-07  1.92E-04  1.27E-02  0.87856
   2104.    4.753  4.11E-08  1.82E-05  3.90E-07  1.73E-04  0.00E+00  0.00E+00  4.31E-07  1.91E-04  1.27E-02  0.87825
   2106.    4.748  4.34E-08  1.92E-05  3.82E-07  1.70E-04  0.00E+00  0.00E+00  4.26E-07  1.89E-04  1.27E-02  0.86680
   2108.    4.744  4.39E-08  1.95E-05  3.78E-07  1.68E-04  0.00E+00  0.00E+00  4.22E-07  1.88E-04  1.27E-02  0.86334
   2110.    4.739  4.23E-08  1.88E-05  3.78E-07  1.68E-04  0.00E+00  0.00E+00  4.20E-07  1.87E-04  1.27E-02  0.86834
   2112.    4.735  4.35E-08  1.94E-05  3.72E-07  1.66E-04  0.00E+00  0.00E+00  4.15E-07  1.85E-04  1.27E-02  0.86042
   2114.    4.730  4.18E-08  1.87E-05  3.73E-07  1.67E-04  0.00E+00  0.00E+00  4.15E-07  1.85E-04  1.27E-02  0.86951
   2116.    4.726  4.16E-08  1.86E-05  3.69E-07  1.65E-04  0.00E+00  0.00E+00  4.11E-07  1.84E-04  1.27E-02  0.86685
   2118.    4.721  3.93E-08  1.77E-05  3.72E-07  1.67E-04  0.00E+00  0.00E+00  4.11E-07  1.84E-04  1.27E-02  0.87815
   2120.    4.717  4.00E-08  1.80E-05  3.67E-07  1.65E-04  0.00E+00  0.00E+00  4.07E-07  1.83E-04  1.27E-02  0.87274
   2122.    4.713  3.79E-08  1.71E-05  3.69E-07  1.66E-04  0.00E+00  0.00E+00  4.07E-07  1.83E-04  1.27E-02  0.88316
   2124.    4.708  3.78E-08  1.71E-05  3.66E-07  1.65E-04  0.00E+00  0.00E+00  4.04E-07  1.82E-04  1.27E-02  0.88194
   2126.    4.704  3.66E-08  1.66E-05  3.66E-07  1.65E-04  0.00E+00  0.00E+00  4.02E-07  1.82E-04  1.27E-02  0.88767
   2128.    4.699  4.27E-08  1.93E-05  3.49E-07  1.58E-04  0.00E+00  0.00E+00  3.92E-07  1.78E-04  1.27E-02  0.85405
   2130.    4.695  5.37E-08  2.44E-05  3.18E-07  1.44E-04  0.00E+00  0.00E+00  3.72E-07  1.69E-04  1.27E-02  0.78267
   2132.    4.690  3.55E-08  1.61E-05  3.59E-07  1.63E-04  0.00E+00  0.00E+00  3.95E-07  1.79E-04  1.27E-02  0.89073
   2134.    4.686  3.53E-08  1.61E-05  3.57E-07  1.62E-04  0.00E+00  0.00E+00  3.92E-07  1.78E-04  1.27E-02  0.88998
   2136.    4.682  3.53E-08  1.61E-05  3.54E-07  1.61E-04  0.00E+00  0.00E+00  3.89E-07  1.77E-04  1.27E-02  0.88903
   2138.    4.677  3.55E-08  1.62E-05  3.50E-07  1.60E-04  0.00E+00  0.00E+00  3.86E-07  1.76E-04  1.27E-02  0.88646
   2140.    4.673  3.54E-08  1.62E-05  3.48E-07  1.59E-04  0.00E+00  0.00E+00  3.83E-07  1.75E-04  1.27E-02  0.88554
   2142.    4.669  3.56E-08  1.63E-05  3.44E-07  1.58E-04  0.00E+00  0.00E+00  3.80E-07  1.74E-04  1.27E-02  0.88344
   2144.    4.664  3.57E-08  1.64E-05  3.41E-07  1.57E-04  0.00E+00  0.00E+00  3.77E-07  1.73E-04  1.27E-02  0.88146
   2146.    4.660  3.58E-08  1.65E-05  3.38E-07  1.56E-04  0.00E+00  0.00E+00  3.74E-07  1.72E-04  1.27E-02  0.87972
   2148.    4.655  3.61E-08  1.67E-05  3.35E-07  1.54E-04  0.00E+00  0.00E+00  3.71E-07  1.71E-04  1.27E-02  0.87666
   2150.    4.651  3.62E-08  1.67E-05  3.32E-07  1.53E-04  0.00E+00  0.00E+00  3.68E-07  1.70E-04  1.27E-02  0.87486
   2152.    4.647  3.65E-08  1.69E-05  3.28E-07  1.52E-04  0.00E+00  0.00E+00  3.65E-07  1.69E-04  1.27E-02  0.87158
   2154.    4.643  3.68E-08  1.71E-05  3.25E-07  1.51E-04  0.00E+00  0.00E+00  3.62E-07  1.68E-04  1.27E-02  0.86848
   2156.    4.638  3.70E-08  1.72E-05  3.21E-07  1.49E-04  0.00E+00  0.00E+00  3.58E-07  1.67E-04  1.27E-02  0.86561
   2158.    4.634  3.73E-08  1.74E-05  3.18E-07  1.48E-04  0.00E+00  0.00E+00  3.55E-07  1.66E-04  1.27E-02  0.86238
   2160.    4.630  3.75E-08  1.75E-05  3.15E-07  1.47E-04  0.00E+00  0.00E+00  3.52E-07  1.64E-04  1.27E-02  0.85976
   2162.    4.625  3.79E-08  1.77E-05  3.11E-07  1.46E-04  0.00E+00  0.00E+00  3.49E-07  1.63E-04  1.27E-02  0.85593
   2164.    4.621  3.85E-08  1.80E-05  3.07E-07  1.44E-04  0.00E+00  0.00E+00  3.46E-07  1.62E-04  1.27E-02  0.85075
   2166.    4.617  3.92E-08  1.84E-05  3.03E-07  1.42E-04  0.00E+00  0.00E+00  3.42E-07  1.61E-04  1.27E-02  0.84501
   2168.    4.613  3.89E-08  1.83E-05  3.01E-07  1.42E-04  0.00E+00  0.00E+00  3.40E-07  1.60E-04  1.27E-02  0.84491
   2170.    4.608  3.92E-08  1.84E-05  2.98E-07  1.40E-04  0.00E+00  0.00E+00  3.37E-07  1.59E-04  1.27E-02  0.84131
   2172.    4.604  3.94E-08  1.86E-05  2.95E-07  1.39E-04  0.00E+00  0.00E+00  3.34E-07  1.58E-04  1.27E-02  0.83847
   2174.    4.600  3.95E-08  1.87E-05  2.92E-07  1.38E-04  0.00E+00  0.00E+00  3.31E-07  1.57E-04  1.27E-02  0.83598
   2176.    4.596  3.96E-08  1.88E-05  2.89E-07  1.37E-04  0.00E+00  0.00E+00  3.28E-07  1.56E-04  1.27E-02  0.83332
   2178.    4.591  3.98E-08  1.89E-05  2.86E-07  1.36E-04  0.00E+00  0.00E+00  3.26E-07  1.54E-04  1.27E-02  0.83067
   2180.    4.587  3.99E-08  1.90E-05  2.83E-07  1.34E-04  0.00E+00  0.00E+00  3.23E-07  1.53E-04  1.27E-02  0.82794
   2182.    4.583  4.02E-08  1.91E-05  2.80E-07  1.33E-04  0.00E+00  0.00E+00  3.20E-07  1.52E-04  1.27E-02  0.82448
   2184.    4.579  4.04E-08  1.93E-05  2.77E-07  1.32E-04  0.00E+00  0.00E+00  3.17E-07  1.51E-04  1.27E-02  0.82095
   2186.    4.575  4.07E-08  1.94E-05  2.74E-07  1.31E-04  0.00E+00  0.00E+00  3.14E-07  1.50E-04  1.27E-02  0.81725
   2188.    4.570  4.09E-08  1.96E-05  2.71E-07  1.29E-04  0.00E+00  0.00E+00  3.11E-07  1.49E-04  1.27E-02  0.81371
   2190.    4.566  4.12E-08  1.98E-05  2.67E-07  1.28E-04  0.00E+00  0.00E+00  3.09E-07  1.48E-04  1.27E-02  0.80994
   2192.    4.562  4.15E-08  1.99E-05  2.64E-07  1.27E-04  0.00E+00  0.00E+00  3.06E-07  1.47E-04  1.27E-02  0.80635
   2194.    4.558  4.17E-08  2.01E-05  2.61E-07  1.26E-04  0.00E+00  0.00E+00  3.03E-07  1.46E-04  1.27E-02  0.80270
   2196.    4.554  4.20E-08  2.03E-05  2.58E-07  1.25E-04  0.00E+00  0.00E+00  3.00E-07  1.45E-04  1.27E-02  0.79885
   2198.    4.550  4.23E-08  2.04E-05  2.55E-07  1.23E-04  0.00E+00  0.00E+00  2.98E-07  1.44E-04  1.27E-02  0.79496
   2200.    4.545  4.26E-08  2.06E-05  2.52E-07  1.22E-04  0.00E+00  0.00E+00  2.95E-07  1.43E-04  1.27E-02  0.79061
0INTEGRATED ABSORPTION FROM    2 TO 2200 CM-1 =    381.94 CM-1
 AVERAGE TRANSMITTANCE =0.8262

0INTEGRATED RADIANCE =  1.272E-02 WATTS CM-2 STER-1
 MINIMUM RADIANCE    =  9.730E-10 WATTS CM-2 STER-1 (CM-1)-1 AT        2.0 CM-1
 MAXIMUM RADIANCE    =  1.487E-05 WATTS CM-2 STER-1 (CM-1)-1 AT      554.0 CM-1
 BOUNDARY TEMPERATURE =     299.70 K
 BOUNDARY EMISSIVITY =       0.971
0 CARD 5 *****    0


