*****  MODTRAN3 Version 1.3  12/1/95  *****
0 CARD 1  *****T   1    3    1    0    0    0    0    0    0    0    0    0   -1   0.000  -1.00
 co2mx co2rat ch4rat h2orat t_o3rat s_o3rat   1024.0000       3.1030302       0.0000000       0.0000000       0.0000000       0.0000000    
0 CARD 2  *****    2    0    0    0    0    0     0.000     0.000     0.000     0.000     0.000
0 CARD 3  *****    20.000     0.000   180.000     0.000     0.000     0.000    0
0 CARD 4  *****         2      2200         2         2
0 PROGRAM WILL COMPUTE RADIANCE                
0 ATMOSPHERIC MODEL
          TEMPERATURE =    1     TROPICAL MODEL      
          WATER VAPOR =    1     TROPICAL MODEL      
          OZONE       =    1     TROPICAL MODEL      
                      M4 =     1 M5 =     1 M6 =     1 MDEF =     1
0 AEROSOL MODEL
          REGIME                  AEROSOL TYPE             PROFILE                  SEASON

          BOUNDARY LAYER (0-2 KM) RURAL                      5.0 KM VIS AT SEA LEVEL
          TROPOSPHERE  (2-10KM)   TROPOSPHERIC             TROPOSPHERIC             SPRING-SUMMER       
          STRATOSPHERE (10-30KM)  BACKGROUND STRATO        BACKGROUND STRATO        SPRING-SUMMER       
          UPPER ATMOS (30-100KM)  METEORIC DUST            NORMAL              
0 SLANT PATH TO SPACE
          H1    =     20.000 KM
          HMIN  =      0.000 KM
          ANGLE =    180.000 DEG
0 FREQUENCY RANGE
             IV1 =         2 CM-1  (   5000.00 MICROMETERS)
             IV2 =      2200 CM-1  (      4.55 MICROMETERS)
             IDV =         2 CM-1
           IFWHM =         2 CM-1
1
  ATMOSPHERIC PROFILES

   I     Z       P       T        N2       CNTMSLF MOL SCAT     N-1     O3 (UV)  O2 (UV)
        (KM)    (MB)    (K)            (MOL/CM2 KM)   (-)       (-)  (ATM CM/KM) (ATM CM/KM)

   1     0.00 1013.000  299.7  7.622E-01 0.000E+00 9.112E-01 2.621E-04 0.000E+00 3.342E+04
   2     1.00  904.000  293.7  6.321E-01 0.000E+00 8.298E-01 2.386E-04 0.000E+00 2.927E+04
   3     2.00  805.000  287.7  5.223E-01 0.000E+00 7.543E-01 2.169E-04 0.000E+00 2.562E+04
   4     3.00  715.000  283.7  4.238E-01 0.000E+00 6.794E-01 1.954E-04 0.000E+00 2.219E+04
   5     4.00  633.000  277.0  3.484E-01 0.000E+00 6.160E-01 1.772E-04 0.000E+00 1.945E+04
   6     5.00  559.000  270.3  2.853E-01 0.000E+00 5.575E-01 1.603E-04 0.000E+00 1.703E+04
   7     6.00  492.000  263.6  2.324E-01 0.000E+00 5.032E-01 1.447E-04 0.000E+00 1.490E+04
   8     7.00  432.000  257.0  1.885E-01 0.000E+00 4.531E-01 1.303E-04 0.000E+00 1.302E+04
   9     8.00  378.000  250.3  1.522E-01 0.000E+00 4.071E-01 1.171E-04 0.000E+00 1.138E+04
  10     9.00  329.000  243.6  1.217E-01 0.000E+00 3.641E-01 1.047E-04 0.000E+00 9.902E+03
  11    10.00  286.000  237.0  9.716E-02 0.000E+00 3.253E-01 9.356E-05 0.000E+00 8.629E+03
  12    11.00  247.000  230.1  7.688E-02 0.000E+00 2.894E-01 8.322E-05 0.000E+00 7.496E+03
  13    12.00  213.000  223.6  6.054E-02 0.000E+00 2.568E-01 7.386E-05 0.000E+00 6.507E+03
  14    13.00  182.000  217.0  4.693E-02 0.000E+00 2.261E-01 6.503E-05 0.000E+00 5.608E+03
  15    14.00  156.000  210.3  3.671E-02 0.000E+00 2.000E-01 5.751E-05 0.000E+00 4.870E+03
  16    15.00  132.000  203.7  2.802E-02 0.000E+00 1.747E-01 5.024E-05 0.000E+00 4.178E+03
  17    16.00  111.000  197.0  2.118E-02 0.000E+00 1.519E-01 4.368E-05 0.000E+00 3.572E+03
  18    17.00   93.700  194.8  1.544E-02 0.000E+00 1.297E-01 3.729E-05 0.000E+00 3.000E+03
  19    18.00   78.900  198.8  1.051E-02 0.000E+00 1.070E-01 3.077E-05 0.000E+00 2.433E+03
  20    19.00   66.600  202.7  7.202E-03 0.000E+00 8.857E-02 2.547E-05 0.000E+00 1.986E+03
  21    20.00   56.500  206.7  4.985E-03 0.000E+00 7.369E-02 2.119E-05 0.000E+00 1.633E+03
  22    21.00   48.000  210.7  3.463E-03 0.000E+00 6.141E-02 1.766E-05 0.000E+00 1.348E+03
  23    22.00   40.900  214.6  2.423E-03 0.000E+00 5.138E-02 1.478E-05 0.000E+00 1.119E+03
  24    23.00   35.000  217.0  1.736E-03 0.000E+00 4.348E-02 1.250E-05 0.000E+00 9.409E+02
  25    24.00   30.000  219.2  1.250E-03 0.000E+00 3.689E-02 1.061E-05 0.000E+00 7.942E+02
  26    25.00   25.700  221.4  8.990E-04 0.000E+00 3.129E-02 9.000E-06 0.000E+00 6.705E+02
  27    30.00   12.200  232.3  1.840E-04 0.000E+00 1.416E-02 4.072E-06 0.000E+00 2.992E+02
  28    35.00    6.000  243.1  4.064E-05 0.000E+00 6.654E-03 1.914E-06 0.000E+00 1.397E+02
  29    40.00    3.050  254.0  9.620E-06 0.000E+00 3.237E-03 9.310E-07 0.000E+00 6.779E+01
  30    45.00    1.590  264.8  2.405E-06 0.000E+00 1.619E-03 4.655E-07 0.000E+00 3.385E+01
  31    50.00    0.854  270.2  6.665E-07 0.000E+00 8.520E-04 2.450E-07 0.000E+00 1.781E+01
  32    70.00    0.058  218.9  4.684E-09 0.000E+00 7.143E-05 2.054E-08 0.000E+00 1.492E+00
  33   100.00    0.000  190.7  1.532E-13 0.000E+00 4.085E-07 1.175E-10 0.000E+00 6.532E-03
1
  ATMOSPHERIC PROFILES

   I     Z       P       T      CNTMFRN     HNO3    AEROSOL 1 AEROSOL 2 AEROSOL 3 AEROSOL 4 AER1*RH   CIRRUS         RH
        (KM)    (MB)    (K)   MOL/CM2 KM ATM CM/KM   (-)       (-)       (-)       (-)       (-)       (-)      (PERCNT)

   1     0.00 1013.000  299.7  0.000E+00 0.000E+00 7.700E-01 0.000E+00 0.000E+00 0.000E+00 3.546E+00 0.000E+00 0.000E+00
   2     1.00  904.000  293.7  0.000E+00 0.000E+00 7.700E-01 0.000E+00 0.000E+00 0.000E+00 3.546E+00 0.000E+00 0.000E+00
   3     2.00  805.000  287.7  0.000E+00 0.000E+00 6.210E-02 0.000E+00 0.000E+00 0.000E+00 2.860E-01 0.000E+00 0.000E+00
   4     3.00  715.000  283.7  0.000E+00 0.000E+00 0.000E+00 3.460E-02 0.000E+00 0.000E+00 0.000E+00 0.000E+00 0.000E+00
   5     4.00  633.000  277.0  0.000E+00 0.000E+00 0.000E+00 1.850E-02 0.000E+00 0.000E+00 0.000E+00 0.000E+00 0.000E+00
   6     5.00  559.000  270.3  0.000E+00 0.000E+00 0.000E+00 9.310E-03 0.000E+00 0.000E+00 0.000E+00 0.000E+00 0.000E+00
   7     6.00  492.000  263.6  0.000E+00 0.000E+00 0.000E+00 7.710E-03 0.000E+00 0.000E+00 0.000E+00 0.000E+00 0.000E+00
   8     7.00  432.000  257.0  0.000E+00 0.000E+00 0.000E+00 6.230E-03 0.000E+00 0.000E+00 0.000E+00 0.000E+00 0.000E+00
   9     8.00  378.000  250.3  0.000E+00 0.000E+00 0.000E+00 3.370E-03 0.000E+00 0.000E+00 0.000E+00 0.000E+00 0.000E+00
  10     9.00  329.000  243.6  0.000E+00 0.000E+00 0.000E+00 1.820E-03 0.000E+00 0.000E+00 0.000E+00 0.000E+00 0.000E+00
  11    10.00  286.000  237.0  0.000E+00 0.000E+00 0.000E+00 1.140E-03 0.000E+00 0.000E+00 0.000E+00 0.000E+00 0.000E+00
  12    11.00  247.000  230.1  0.000E+00 0.000E+00 0.000E+00 0.000E+00 7.990E-04 0.000E+00 0.000E+00 0.000E+00 0.000E+00
  13    12.00  213.000  223.6  0.000E+00 0.000E+00 0.000E+00 0.000E+00 6.410E-04 0.000E+00 0.000E+00 0.000E+00 0.000E+00
  14    13.00  182.000  217.0  0.000E+00 0.000E+00 0.000E+00 0.000E+00 5.170E-04 0.000E+00 0.000E+00 0.000E+00 0.000E+00
  15    14.00  156.000  210.3  0.000E+00 0.000E+00 0.000E+00 0.000E+00 4.420E-04 0.000E+00 0.000E+00 0.000E+00 0.000E+00
  16    15.00  132.000  203.7  0.000E+00 0.000E+00 0.000E+00 0.000E+00 3.950E-04 0.000E+00 0.000E+00 0.000E+00 0.000E+00
  17    16.00  111.000  197.0  0.000E+00 0.000E+00 0.000E+00 0.000E+00 3.820E-04 0.000E+00 0.000E+00 0.000E+00 0.000E+00
  18    17.00   93.700  194.8  0.000E+00 0.000E+00 0.000E+00 0.000E+00 4.250E-04 0.000E+00 0.000E+00 0.000E+00 0.000E+00
  19    18.00   78.900  198.8  0.000E+00 0.000E+00 0.000E+00 0.000E+00 5.200E-04 0.000E+00 0.000E+00 0.000E+00 0.000E+00
  20    19.00   66.600  202.7  0.000E+00 0.000E+00 0.000E+00 0.000E+00 5.810E-04 0.000E+00 0.000E+00 0.000E+00 0.000E+00
  21    20.00   56.500  206.7  0.000E+00 0.000E+00 0.000E+00 0.000E+00 5.890E-04 0.000E+00 0.000E+00 0.000E+00 0.000E+00
  22    21.00   48.000  210.7  0.000E+00 0.000E+00 0.000E+00 0.000E+00 5.020E-04 0.000E+00 0.000E+00 0.000E+00 0.000E+00
  23    22.00   40.900  214.6  0.000E+00 0.000E+00 0.000E+00 0.000E+00 4.200E-04 0.000E+00 0.000E+00 0.000E+00 0.000E+00
  24    23.00   35.000  217.0  0.000E+00 0.000E+00 0.000E+00 0.000E+00 3.000E-04 0.000E+00 0.000E+00 0.000E+00 0.000E+00
  25    24.00   30.000  219.2  0.000E+00 0.000E+00 0.000E+00 0.000E+00 1.980E-04 0.000E+00 0.000E+00 0.000E+00 0.000E+00
  26    25.00   25.700  221.4  0.000E+00 0.000E+00 0.000E+00 0.000E+00 1.310E-04 0.000E+00 0.000E+00 0.000E+00 0.000E+00
  27    30.00   12.200  232.3  0.000E+00 0.000E+00 0.000E+00 0.000E+00 3.320E-05 0.000E+00 0.000E+00 0.000E+00 0.000E+00
  28    35.00    6.000  243.1  0.000E+00 0.000E+00 0.000E+00 0.000E+00 0.000E+00 1.640E-05 0.000E+00 0.000E+00 0.000E+00
  29    40.00    3.050  254.0  0.000E+00 0.000E+00 0.000E+00 0.000E+00 0.000E+00 7.990E-06 0.000E+00 0.000E+00 0.000E+00
  30    45.00    1.590  264.8  0.000E+00 0.000E+00 0.000E+00 0.000E+00 0.000E+00 4.010E-06 0.000E+00 0.000E+00 0.000E+00
  31    50.00    0.854  270.2  0.000E+00 0.000E+00 0.000E+00 0.000E+00 0.000E+00 2.100E-06 0.000E+00 0.000E+00 0.000E+00
  32    70.00    0.058  218.9  0.000E+00 0.000E+00 0.000E+00 0.000E+00 0.000E+00 1.600E-07 0.000E+00 0.000E+00 0.000E+00
  33   100.00    0.000  190.7  0.000E+00 0.000E+00 0.000E+00 0.000E+00 0.000E+00 9.310E-10 0.000E+00 0.000E+00 0.000E+00
1
  ATMOSPHERIC PROFILES

   I      Z       P       T      H2O      O3       CO2      CO       CH4      N2O      O2       NH3      NO       NO2      SO2
         (KM)    (MB)    (K)  (                                    MBAR                                                       )
   1     0.00 1013.000  299.7  0.00E+00 0.00E+00 1.02E+03 0.00E+00 0.00E+00 0.00E+00 2.09E+05 0.00E+00 0.00E+00 0.00E+00 0.00E+00
   2     1.00  904.000  293.7  0.00E+00 0.00E+00 1.02E+03 0.00E+00 0.00E+00 0.00E+00 2.09E+05 0.00E+00 0.00E+00 0.00E+00 0.00E+00
   3     2.00  805.000  287.7  0.00E+00 0.00E+00 1.02E+03 0.00E+00 0.00E+00 0.00E+00 2.09E+05 0.00E+00 0.00E+00 0.00E+00 0.00E+00
   4     3.00  715.000  283.7  0.00E+00 0.00E+00 1.02E+03 0.00E+00 0.00E+00 0.00E+00 2.09E+05 0.00E+00 0.00E+00 0.00E+00 0.00E+00
   5     4.00  633.000  277.0  0.00E+00 0.00E+00 1.02E+03 0.00E+00 0.00E+00 0.00E+00 2.09E+05 0.00E+00 0.00E+00 0.00E+00 0.00E+00
   6     5.00  559.000  270.3  0.00E+00 0.00E+00 1.02E+03 0.00E+00 0.00E+00 0.00E+00 2.09E+05 0.00E+00 0.00E+00 0.00E+00 0.00E+00
   7     6.00  492.000  263.6  0.00E+00 0.00E+00 1.02E+03 0.00E+00 0.00E+00 0.00E+00 2.09E+05 0.00E+00 0.00E+00 0.00E+00 0.00E+00
   8     7.00  432.000  257.0  0.00E+00 0.00E+00 1.02E+03 0.00E+00 0.00E+00 0.00E+00 2.09E+05 0.00E+00 0.00E+00 0.00E+00 0.00E+00
   9     8.00  378.000  250.3  0.00E+00 0.00E+00 1.02E+03 0.00E+00 0.00E+00 0.00E+00 2.09E+05 0.00E+00 0.00E+00 0.00E+00 0.00E+00
  10     9.00  329.000  243.6  0.00E+00 0.00E+00 1.02E+03 0.00E+00 0.00E+00 0.00E+00 2.09E+05 0.00E+00 0.00E+00 0.00E+00 0.00E+00
  11    10.00  286.000  237.0  0.00E+00 0.00E+00 1.02E+03 0.00E+00 0.00E+00 0.00E+00 2.09E+05 0.00E+00 0.00E+00 0.00E+00 0.00E+00
  12    11.00  247.000  230.1  0.00E+00 0.00E+00 1.02E+03 0.00E+00 0.00E+00 0.00E+00 2.09E+05 0.00E+00 0.00E+00 0.00E+00 0.00E+00
  13    12.00  213.000  223.6  0.00E+00 0.00E+00 1.02E+03 0.00E+00 0.00E+00 0.00E+00 2.09E+05 0.00E+00 0.00E+00 0.00E+00 0.00E+00
  14    13.00  182.000  217.0  0.00E+00 0.00E+00 1.02E+03 0.00E+00 0.00E+00 0.00E+00 2.09E+05 0.00E+00 0.00E+00 0.00E+00 0.00E+00
  15    14.00  156.000  210.3  0.00E+00 0.00E+00 1.02E+03 0.00E+00 0.00E+00 0.00E+00 2.09E+05 0.00E+00 0.00E+00 0.00E+00 0.00E+00
  16    15.00  132.000  203.7  0.00E+00 0.00E+00 1.02E+03 0.00E+00 0.00E+00 0.00E+00 2.09E+05 0.00E+00 0.00E+00 0.00E+00 0.00E+00
  17    16.00  111.000  197.0  0.00E+00 0.00E+00 1.02E+03 0.00E+00 0.00E+00 0.00E+00 2.09E+05 0.00E+00 0.00E+00 0.00E+00 0.00E+00
  18    17.00   93.700  194.8  0.00E+00 0.00E+00 1.02E+03 0.00E+00 0.00E+00 0.00E+00 2.09E+05 0.00E+00 0.00E+00 0.00E+00 0.00E+00
  19    18.00   78.900  198.8  0.00E+00 0.00E+00 1.02E+03 0.00E+00 0.00E+00 0.00E+00 2.09E+05 0.00E+00 0.00E+00 0.00E+00 0.00E+00
  20    19.00   66.600  202.7  0.00E+00 0.00E+00 1.02E+03 0.00E+00 0.00E+00 0.00E+00 2.09E+05 0.00E+00 0.00E+00 0.00E+00 0.00E+00
  21    20.00   56.500  206.7  0.00E+00 0.00E+00 1.02E+03 0.00E+00 0.00E+00 0.00E+00 2.09E+05 0.00E+00 0.00E+00 0.00E+00 0.00E+00
  22    21.00   48.000  210.7  0.00E+00 0.00E+00 1.02E+03 0.00E+00 0.00E+00 0.00E+00 2.09E+05 0.00E+00 0.00E+00 0.00E+00 0.00E+00
  23    22.00   40.900  214.6  0.00E+00 0.00E+00 1.02E+03 0.00E+00 0.00E+00 0.00E+00 2.09E+05 0.00E+00 0.00E+00 0.00E+00 0.00E+00
  24    23.00   35.000  217.0  0.00E+00 0.00E+00 1.02E+03 0.00E+00 0.00E+00 0.00E+00 2.09E+05 0.00E+00 0.00E+00 0.00E+00 0.00E+00
  25    24.00   30.000  219.2  0.00E+00 0.00E+00 1.02E+03 0.00E+00 0.00E+00 0.00E+00 2.09E+05 0.00E+00 0.00E+00 0.00E+00 0.00E+00
  26    25.00   25.700  221.4  0.00E+00 0.00E+00 1.02E+03 0.00E+00 0.00E+00 0.00E+00 2.09E+05 0.00E+00 0.00E+00 0.00E+00 0.00E+00
  27    30.00   12.200  232.3  0.00E+00 0.00E+00 1.02E+03 0.00E+00 0.00E+00 0.00E+00 2.09E+05 0.00E+00 0.00E+00 0.00E+00 0.00E+00
  28    35.00    6.000  243.1  0.00E+00 0.00E+00 1.02E+03 0.00E+00 0.00E+00 0.00E+00 2.09E+05 0.00E+00 0.00E+00 0.00E+00 0.00E+00
  29    40.00    3.050  254.0  0.00E+00 0.00E+00 1.02E+03 0.00E+00 0.00E+00 0.00E+00 2.09E+05 0.00E+00 0.00E+00 0.00E+00 0.00E+00
  30    45.00    1.590  264.8  0.00E+00 0.00E+00 1.02E+03 0.00E+00 0.00E+00 0.00E+00 2.09E+05 0.00E+00 0.00E+00 0.00E+00 0.00E+00
  31    50.00    0.854  270.2  0.00E+00 0.00E+00 1.02E+03 0.00E+00 0.00E+00 0.00E+00 2.09E+05 0.00E+00 0.00E+00 0.00E+00 0.00E+00
  32    70.00    0.058  218.9  0.00E+00 0.00E+00 1.02E+03 0.00E+00 0.00E+00 0.00E+00 2.09E+05 0.00E+00 0.00E+00 0.00E+00 0.00E+00
  33   100.00    0.000  190.7  0.00E+00 0.00E+00 6.05E+02 0.00E+00 0.00E+00 0.00E+00 1.60E+05 0.00E+00 0.00E+00 0.00E+00 0.00E+00
1
  ATMOSPHERIC PROFILES

   I      Z       P       T     CFC-11   CFC-12   CFC-13   CFC-14   CFC-22   CFC-113  CFC-114  CFC-115  CLONO2    HNO4    CHCL2F 
                                 CCL4     N2O5  
         (KM)    (MB)    (K)  (                                 ATM CM/KM                                                     )
   1     0.00 1013.000  299.7  0.00E+00 0.00E+00 0.00E+00 0.00E+00 0.00E+00 0.00E+00 0.00E+00 0.00E+00 0.00E+00 0.00E+00 0.00E+00
                               0.00E+00 0.00E+00
   2     1.00  904.000  293.7  0.00E+00 0.00E+00 0.00E+00 0.00E+00 0.00E+00 0.00E+00 0.00E+00 0.00E+00 0.00E+00 0.00E+00 0.00E+00
                               0.00E+00 0.00E+00
   3     2.00  805.000  287.7  0.00E+00 0.00E+00 0.00E+00 0.00E+00 0.00E+00 0.00E+00 0.00E+00 0.00E+00 0.00E+00 0.00E+00 0.00E+00
                               0.00E+00 0.00E+00
   4     3.00  715.000  283.7  0.00E+00 0.00E+00 0.00E+00 0.00E+00 0.00E+00 0.00E+00 0.00E+00 0.00E+00 0.00E+00 0.00E+00 0.00E+00
                               0.00E+00 0.00E+00
   5     4.00  633.000  277.0  0.00E+00 0.00E+00 0.00E+00 0.00E+00 0.00E+00 0.00E+00 0.00E+00 0.00E+00 0.00E+00 0.00E+00 0.00E+00
                               0.00E+00 0.00E+00
   6     5.00  559.000  270.3  0.00E+00 0.00E+00 0.00E+00 0.00E+00 0.00E+00 0.00E+00 0.00E+00 0.00E+00 0.00E+00 0.00E+00 0.00E+00
                               0.00E+00 0.00E+00
   7     6.00  492.000  263.6  0.00E+00 0.00E+00 0.00E+00 0.00E+00 0.00E+00 0.00E+00 0.00E+00 0.00E+00 0.00E+00 0.00E+00 0.00E+00
                               0.00E+00 0.00E+00
   8     7.00  432.000  257.0  0.00E+00 0.00E+00 0.00E+00 0.00E+00 0.00E+00 0.00E+00 0.00E+00 0.00E+00 0.00E+00 0.00E+00 0.00E+00
                               0.00E+00 0.00E+00
   9     8.00  378.000  250.3  0.00E+00 0.00E+00 0.00E+00 0.00E+00 0.00E+00 0.00E+00 0.00E+00 0.00E+00 0.00E+00 0.00E+00 0.00E+00
                               0.00E+00 0.00E+00
  10     9.00  329.000  243.6  0.00E+00 0.00E+00 0.00E+00 0.00E+00 0.00E+00 0.00E+00 0.00E+00 0.00E+00 0.00E+00 0.00E+00 0.00E+00
                               0.00E+00 0.00E+00
  11    10.00  286.000  237.0  0.00E+00 0.00E+00 0.00E+00 0.00E+00 0.00E+00 0.00E+00 0.00E+00 0.00E+00 0.00E+00 0.00E+00 0.00E+00
                               0.00E+00 0.00E+00
  12    11.00  247.000  230.1  0.00E+00 0.00E+00 0.00E+00 0.00E+00 0.00E+00 0.00E+00 0.00E+00 0.00E+00 0.00E+00 0.00E+00 0.00E+00
                               0.00E+00 0.00E+00
  13    12.00  213.000  223.6  0.00E+00 0.00E+00 0.00E+00 0.00E+00 0.00E+00 0.00E+00 0.00E+00 0.00E+00 0.00E+00 0.00E+00 0.00E+00
                               0.00E+00 0.00E+00
  14    13.00  182.000  217.0  0.00E+00 0.00E+00 0.00E+00 0.00E+00 0.00E+00 0.00E+00 0.00E+00 0.00E+00 0.00E+00 0.00E+00 0.00E+00
                               0.00E+00 0.00E+00
  15    14.00  156.000  210.3  0.00E+00 0.00E+00 0.00E+00 0.00E+00 0.00E+00 0.00E+00 0.00E+00 0.00E+00 0.00E+00 0.00E+00 0.00E+00
                               0.00E+00 0.00E+00
  16    15.00  132.000  203.7  0.00E+00 0.00E+00 0.00E+00 0.00E+00 0.00E+00 0.00E+00 0.00E+00 0.00E+00 0.00E+00 0.00E+00 0.00E+00
                               0.00E+00 0.00E+00
  17    16.00  111.000  197.0  0.00E+00 0.00E+00 0.00E+00 0.00E+00 0.00E+00 0.00E+00 0.00E+00 0.00E+00 0.00E+00 0.00E+00 0.00E+00
                               0.00E+00 0.00E+00
  18    17.00   93.700  194.8  0.00E+00 0.00E+00 0.00E+00 0.00E+00 0.00E+00 0.00E+00 0.00E+00 0.00E+00 0.00E+00 0.00E+00 0.00E+00
                               0.00E+00 0.00E+00
  19    18.00   78.900  198.8  0.00E+00 0.00E+00 0.00E+00 0.00E+00 0.00E+00 0.00E+00 0.00E+00 0.00E+00 0.00E+00 0.00E+00 0.00E+00
                               0.00E+00 0.00E+00
  20    19.00   66.600  202.7  0.00E+00 0.00E+00 0.00E+00 0.00E+00 0.00E+00 0.00E+00 0.00E+00 0.00E+00 0.00E+00 0.00E+00 0.00E+00
                               0.00E+00 0.00E+00
  21    20.00   56.500  206.7  0.00E+00 0.00E+00 0.00E+00 0.00E+00 0.00E+00 0.00E+00 0.00E+00 0.00E+00 0.00E+00 0.00E+00 0.00E+00
                               0.00E+00 0.00E+00
  22    21.00   48.000  210.7  0.00E+00 0.00E+00 0.00E+00 0.00E+00 0.00E+00 0.00E+00 0.00E+00 0.00E+00 0.00E+00 0.00E+00 0.00E+00
                               0.00E+00 0.00E+00
  23    22.00   40.900  214.6  0.00E+00 0.00E+00 0.00E+00 0.00E+00 0.00E+00 0.00E+00 0.00E+00 0.00E+00 0.00E+00 0.00E+00 0.00E+00
                               0.00E+00 0.00E+00
  24    23.00   35.000  217.0  0.00E+00 0.00E+00 0.00E+00 0.00E+00 0.00E+00 0.00E+00 0.00E+00 0.00E+00 0.00E+00 0.00E+00 0.00E+00
                               0.00E+00 0.00E+00
  25    24.00   30.000  219.2  0.00E+00 0.00E+00 0.00E+00 0.00E+00 0.00E+00 0.00E+00 0.00E+00 0.00E+00 0.00E+00 0.00E+00 0.00E+00
                               0.00E+00 0.00E+00
  26    25.00   25.700  221.4  0.00E+00 0.00E+00 0.00E+00 0.00E+00 0.00E+00 0.00E+00 0.00E+00 0.00E+00 0.00E+00 0.00E+00 0.00E+00
                               0.00E+00 0.00E+00
  27    30.00   12.200  232.3  0.00E+00 0.00E+00 0.00E+00 0.00E+00 0.00E+00 0.00E+00 0.00E+00 0.00E+00 0.00E+00 0.00E+00 0.00E+00
                               0.00E+00 0.00E+00
  28    35.00    6.000  243.1  0.00E+00 0.00E+00 0.00E+00 0.00E+00 0.00E+00 0.00E+00 0.00E+00 0.00E+00 0.00E+00 0.00E+00 0.00E+00
                               0.00E+00 0.00E+00
  29    40.00    3.050  254.0  0.00E+00 0.00E+00 0.00E+00 0.00E+00 0.00E+00 0.00E+00 0.00E+00 0.00E+00 0.00E+00 0.00E+00 0.00E+00
                               0.00E+00 0.00E+00
  30    45.00    1.590  264.8  0.00E+00 0.00E+00 0.00E+00 0.00E+00 0.00E+00 0.00E+00 0.00E+00 0.00E+00 0.00E+00 0.00E+00 0.00E+00
                               0.00E+00 0.00E+00
  31    50.00    0.854  270.2  0.00E+00 0.00E+00 0.00E+00 0.00E+00 0.00E+00 0.00E+00 0.00E+00 0.00E+00 0.00E+00 0.00E+00 0.00E+00
                               0.00E+00 0.00E+00
  32    70.00    0.058  218.9  0.00E+00 0.00E+00 0.00E+00 0.00E+00 0.00E+00 0.00E+00 0.00E+00 0.00E+00 0.00E+00 0.00E+00 0.00E+00
                               0.00E+00 0.00E+00
  33   100.00    0.000  190.7  0.00E+00 0.00E+00 0.00E+00 0.00E+00 0.00E+00 0.00E+00 0.00E+00 0.00E+00 0.00E+00 0.00E+00 0.00E+00
                               0.00E+00 0.00E+00


 CASE 3A: GIVEN H1,H2=SPACE,ANGLE



 TANGENT PATH WITH H1 =     20.000 AND ANGLE =    180.000 INTERSECTS THE EARTH

          H2 HAS BEEN RESET TO 0.0 AND LEN TO 0



 SLANT PATH PARAMETERS IN STANDARD FORM

          H1      =     20.000 KM
          H2      =      0.000 KM
          ANGLE   =    180.000 DEG
          PHI     =      0.000 DEG
          HMIN    =      0.000 KM
          LEN     =          0
1CALCULATION OF THE REFRACTED PATH THROUGH THE ATMOSPHERE


  I       ALTITUDE        THETA  DRANGE    RANGE    DBETA     BETA     PHI     DBEND  BENDING    PBAR    TBAR   RHOBAR
      FROM       TO
      (KM)      (KM)      (DEG)    (KM)     (KM)    (DEG)    (DEG)    (DEG)    (DEG)    (DEG)    (MB)    (K)  (GM CM-3)

          H2 TO H1

  1    0.000    1.000    0.000    1.000    1.000    0.000    0.000  180.000    0.000    0.000  958.316  296.74 1.12E-03
  2    1.000    2.000    0.000    1.000    2.000    0.000    0.000  180.000    0.000    0.000  854.330  290.74 1.02E-03
  3    2.000    3.000    0.000    1.000    3.000    0.000    0.000  180.000    0.000    0.000  759.895  285.73 9.26E-04
  4    3.000    4.000    0.000    1.000    4.000    0.000    0.000  180.000    0.000    0.000  673.837  280.39 8.36E-04
  5    4.000    5.000    0.000    1.000    5.000    0.000    0.000  180.000    0.000    0.000  595.849  273.69 7.58E-04
  6    5.000    6.000    0.000    1.000    6.000    0.000    0.000  180.000    0.000    0.000  525.360  266.99 6.85E-04
  7    6.000    7.000    0.000    1.000    7.000    0.000    0.000  180.000    0.000    0.000  461.873  260.34 6.17E-04
  8    7.000    8.000    0.000    1.000    8.000    0.000    0.000  180.000    0.000    0.000  404.881  253.70 5.55E-04
  9    8.000    9.000    0.000    1.000    9.000    0.000    0.000  180.000    0.000    0.000  353.389  247.00 4.98E-04
 10    9.000   10.000    0.000    1.000   10.000    0.000    0.000  180.000    0.000    0.000  307.402  240.35 4.45E-04
 11   10.000   11.000    0.000    1.000   11.000    0.000    0.000  180.000    0.000    0.000  266.404  233.60 3.97E-04
 12   11.000   12.000    0.000    1.000   12.000    0.000    0.000  180.000    0.000    0.000  229.919  226.90 3.52E-04
 13   12.000   13.000    0.000    1.000   13.000    0.000    0.000  180.000    0.000    0.000  197.423  220.35 3.12E-04
 14   13.000   14.000    0.000    1.000   14.000    0.000    0.000  180.000    0.000    0.000  168.932  213.70 2.75E-04
 15   14.000   15.000    0.000    1.000   15.000    0.000    0.000  180.000    0.000    0.000  143.936  207.06 2.42E-04
 16   15.000   16.000    0.000    1.000   16.000    0.000    0.000  180.000    0.000    0.000  121.442  200.41 2.11E-04
 17   16.000   17.000    0.000    1.000   17.000    0.000    0.000  180.000    0.000    0.000  102.334  195.93 1.82E-04
 18   17.000   18.000    0.000    1.000   18.000    0.000    0.000  180.000    0.000    0.000   86.325  196.73 1.52E-04
 19   18.000   19.000    0.000    1.000   19.000    0.000    0.000  180.000    0.000    0.000   72.770  200.68 1.26E-04
 20   19.000   20.000    0.000    1.000   20.000    0.000    0.000  180.000    0.000    0.000   61.566  204.63 1.05E-04




1CUMULATIVE ABSORBER AMOUNTS FOR THE PATH FROM H1 TO Z

  J     Z        TBAR     HNO3        O3 UV      CNTMSLF1   CNTMSLF2    CNTMFRN      O2
       (KM)       (K)   (ATM CM)    (ATM CM)    (MOL CM-2)  (MOL CM-2)  (MOL CM-2)(MOL CM-2)

  1   19.000   204.63   0.000E+00   0.000E+00   0.000E+00   0.000E+00   0.000E+00   1.804E+03
  2   18.000   200.68   0.000E+00   0.000E+00   0.000E+00   0.000E+00   0.000E+00   4.006E+03
  3   17.000   196.73   0.000E+00   0.000E+00   0.000E+00   0.000E+00   0.000E+00   6.712E+03
  4   16.000   195.93   0.000E+00   0.000E+00   0.000E+00   0.000E+00   0.000E+00   9.990E+03
  5   15.000   200.41   0.000E+00   0.000E+00   0.000E+00   0.000E+00   0.000E+00   1.386E+04
  6   14.000   207.06   0.000E+00   0.000E+00   0.000E+00   0.000E+00   0.000E+00   1.837E+04
  7   13.000   213.70   0.000E+00   0.000E+00   0.000E+00   0.000E+00   0.000E+00   2.360E+04
  8   12.000   220.35   0.000E+00   0.000E+00   0.000E+00   0.000E+00   0.000E+00   2.965E+04
  9   11.000   226.90   0.000E+00   0.000E+00   0.000E+00   0.000E+00   0.000E+00   3.664E+04
 10   10.000   233.60   0.000E+00   0.000E+00   0.000E+00   0.000E+00   0.000E+00   4.469E+04
 11    9.000   240.35   0.000E+00   0.000E+00   0.000E+00   0.000E+00   0.000E+00   5.394E+04
 12    8.000   247.00   0.000E+00   0.000E+00   0.000E+00   0.000E+00   0.000E+00   6.456E+04
 13    7.000   253.70   0.000E+00   0.000E+00   0.000E+00   0.000E+00   0.000E+00   7.674E+04
 14    6.000   260.34   0.000E+00   0.000E+00   0.000E+00   0.000E+00   0.000E+00   9.068E+04
 15    5.000   266.99   0.000E+00   0.000E+00   0.000E+00   0.000E+00   0.000E+00   1.066E+05
 16    4.000   273.69   0.000E+00   0.000E+00   0.000E+00   0.000E+00   0.000E+00   1.248E+05
 17    3.000   280.39   0.000E+00   0.000E+00   0.000E+00   0.000E+00   0.000E+00   1.456E+05
 18    2.000   285.73   0.000E+00   0.000E+00   0.000E+00   0.000E+00   0.000E+00   1.695E+05
 19    1.000   290.74   0.000E+00   0.000E+00   0.000E+00   0.000E+00   0.000E+00   1.969E+05
 20    0.000   296.74   0.000E+00   0.000E+00   0.000E+00   0.000E+00   0.000E+00   2.282E+05



1 J     Z       N2 CONT    MOL SCAT       AER 1       AER 2       AER 3       AER 4       CIRRUS
       (KM)

  1   19.000   6.026E-03   8.090E-02   0.000E+00   0.000E+00   5.850E-04   0.000E+00   0.000E+00
  2   18.000   1.478E-02   1.784E-01   0.000E+00   0.000E+00   1.135E-03   0.000E+00   0.000E+00
  3   17.000   2.759E-02   2.964E-01   0.000E+00   0.000E+00   1.608E-03   0.000E+00   0.000E+00
  4   16.000   4.575E-02   4.368E-01   0.000E+00   0.000E+00   2.011E-03   0.000E+00   0.000E+00
  5   15.000   7.019E-02   5.999E-01   0.000E+00   0.000E+00   2.400E-03   0.000E+00   0.000E+00
  6   14.000   1.024E-01   7.869E-01   0.000E+00   0.000E+00   2.818E-03   0.000E+00   0.000E+00
  7   13.000   1.440E-01   9.997E-01   0.000E+00   0.000E+00   3.297E-03   0.000E+00   0.000E+00
  8   12.000   1.974E-01   1.241E+00   0.000E+00   0.000E+00   3.873E-03   0.000E+00   0.000E+00
  9   11.000   2.658E-01   1.514E+00   0.000E+00   0.000E+00   4.590E-03   0.000E+00   0.000E+00
 10   10.000   3.524E-01   1.821E+00   0.000E+00   5.700E-04   4.990E-03   0.000E+00   0.000E+00
 11    9.000   4.614E-01   2.165E+00   0.000E+00   2.024E-03   4.990E-03   0.000E+00   0.000E+00
 12    8.000   5.978E-01   2.550E+00   0.000E+00   4.540E-03   4.990E-03   0.000E+00   0.000E+00
 13    7.000   7.674E-01   2.980E+00   0.000E+00   9.194E-03   4.990E-03   0.000E+00   0.000E+00
 14    6.000   9.771E-01   3.458E+00   0.000E+00   1.614E-02   4.990E-03   0.000E+00   0.000E+00
 15    5.000   1.235E+00   3.987E+00   0.000E+00   2.462E-02   4.990E-03   0.000E+00   0.000E+00
 16    4.000   1.551E+00   4.574E+00   0.000E+00   3.801E-02   4.990E-03   0.000E+00   0.000E+00
 17    3.000   1.936E+00   5.221E+00   0.000E+00   6.372E-02   4.990E-03   0.000E+00   0.000E+00
 18    2.000   2.407E+00   5.937E+00   3.105E-02   8.102E-02   4.990E-03   0.000E+00   0.000E+00
 19    1.000   2.983E+00   6.729E+00   3.122E-01   8.102E-02   4.990E-03   0.000E+00   0.000E+00
 20    0.000   3.678E+00   7.598E+00   1.082E+00   8.102E-02   4.990E-03   0.000E+00   0.000E+00



1  J    Z       H2O       O3        CO2       CO        CH4       N2O       O2        NH3       NO        NO2       SO2
      (KM)    (                                                      ATM CM                                             )

   1   19.00  0.00E+00  0.00E+00  8.28E+00  0.00E+00  0.00E+00  0.00E+00  1.69E+03  0.00E+00  0.00E+00  0.00E+00  0.00E+00
   2   18.00  0.00E+00  0.00E+00  1.83E+01  0.00E+00  0.00E+00  0.00E+00  3.73E+03  0.00E+00  0.00E+00  0.00E+00  0.00E+00
   3   17.00  0.00E+00  0.00E+00  3.03E+01  0.00E+00  0.00E+00  0.00E+00  6.19E+03  0.00E+00  0.00E+00  0.00E+00  0.00E+00
   4   16.00  0.00E+00  0.00E+00  4.47E+01  0.00E+00  0.00E+00  0.00E+00  9.12E+03  0.00E+00  0.00E+00  0.00E+00  0.00E+00
   5   15.00  0.00E+00  0.00E+00  6.14E+01  0.00E+00  0.00E+00  0.00E+00  1.25E+04  0.00E+00  0.00E+00  0.00E+00  0.00E+00
   6   14.00  0.00E+00  0.00E+00  8.05E+01  0.00E+00  0.00E+00  0.00E+00  1.64E+04  0.00E+00  0.00E+00  0.00E+00  0.00E+00
   7   13.00  0.00E+00  0.00E+00  1.02E+02  0.00E+00  0.00E+00  0.00E+00  2.09E+04  0.00E+00  0.00E+00  0.00E+00  0.00E+00
   8   12.00  0.00E+00  0.00E+00  1.27E+02  0.00E+00  0.00E+00  0.00E+00  2.59E+04  0.00E+00  0.00E+00  0.00E+00  0.00E+00
   9   11.00  0.00E+00  0.00E+00  1.55E+02  0.00E+00  0.00E+00  0.00E+00  3.16E+04  0.00E+00  0.00E+00  0.00E+00  0.00E+00
  10   10.00  0.00E+00  0.00E+00  1.86E+02  0.00E+00  0.00E+00  0.00E+00  3.80E+04  0.00E+00  0.00E+00  0.00E+00  0.00E+00
  11    9.00  0.00E+00  0.00E+00  2.22E+02  0.00E+00  0.00E+00  0.00E+00  4.52E+04  0.00E+00  0.00E+00  0.00E+00  0.00E+00
  12    8.00  0.00E+00  0.00E+00  2.61E+02  0.00E+00  0.00E+00  0.00E+00  5.33E+04  0.00E+00  0.00E+00  0.00E+00  0.00E+00
  13    7.00  0.00E+00  0.00E+00  3.05E+02  0.00E+00  0.00E+00  0.00E+00  6.22E+04  0.00E+00  0.00E+00  0.00E+00  0.00E+00
  14    6.00  0.00E+00  0.00E+00  3.54E+02  0.00E+00  0.00E+00  0.00E+00  7.22E+04  0.00E+00  0.00E+00  0.00E+00  0.00E+00
  15    5.00  0.00E+00  0.00E+00  4.08E+02  0.00E+00  0.00E+00  0.00E+00  8.33E+04  0.00E+00  0.00E+00  0.00E+00  0.00E+00
  16    4.00  0.00E+00  0.00E+00  4.68E+02  0.00E+00  0.00E+00  0.00E+00  9.55E+04  0.00E+00  0.00E+00  0.00E+00  0.00E+00
  17    3.00  0.00E+00  0.00E+00  5.34E+02  0.00E+00  0.00E+00  0.00E+00  1.09E+05  0.00E+00  0.00E+00  0.00E+00  0.00E+00
  18    2.00  0.00E+00  0.00E+00  6.08E+02  0.00E+00  0.00E+00  0.00E+00  1.24E+05  0.00E+00  0.00E+00  0.00E+00  0.00E+00
  19    1.00  0.00E+00  0.00E+00  6.89E+02  0.00E+00  0.00E+00  0.00E+00  1.41E+05  0.00E+00  0.00E+00  0.00E+00  0.00E+00
  20    0.00  0.00E+00  0.00E+00  7.78E+02  0.00E+00  0.00E+00  0.00E+00  1.59E+05  0.00E+00  0.00E+00  0.00E+00  0.00E+00



1  J    Z      CFC-11    CFC-12    CFC-13    CFC-14    CFC-22    CFC-113   CFC-114   CFC-115   CLONO2     HNO4     CHCL2F 
                CCL4      N2O5  
      (KM)    (                                                   ATM CM                                                )

   1   19.00  0.00E+00  0.00E+00  0.00E+00  0.00E+00  0.00E+00  0.00E+00  0.00E+00  0.00E+00  0.00E+00  0.00E+00  0.00E+00
              0.00E+00  0.00E+00
   2   18.00  0.00E+00  0.00E+00  0.00E+00  0.00E+00  0.00E+00  0.00E+00  0.00E+00  0.00E+00  0.00E+00  0.00E+00  0.00E+00
              0.00E+00  0.00E+00
   3   17.00  0.00E+00  0.00E+00  0.00E+00  0.00E+00  0.00E+00  0.00E+00  0.00E+00  0.00E+00  0.00E+00  0.00E+00  0.00E+00
              0.00E+00  0.00E+00
   4   16.00  0.00E+00  0.00E+00  0.00E+00  0.00E+00  0.00E+00  0.00E+00  0.00E+00  0.00E+00  0.00E+00  0.00E+00  0.00E+00
              0.00E+00  0.00E+00
   5   15.00  0.00E+00  0.00E+00  0.00E+00  0.00E+00  0.00E+00  0.00E+00  0.00E+00  0.00E+00  0.00E+00  0.00E+00  0.00E+00
              0.00E+00  0.00E+00
   6   14.00  0.00E+00  0.00E+00  0.00E+00  0.00E+00  0.00E+00  0.00E+00  0.00E+00  0.00E+00  0.00E+00  0.00E+00  0.00E+00
              0.00E+00  0.00E+00
   7   13.00  0.00E+00  0.00E+00  0.00E+00  0.00E+00  0.00E+00  0.00E+00  0.00E+00  0.00E+00  0.00E+00  0.00E+00  0.00E+00
              0.00E+00  0.00E+00
   8   12.00  0.00E+00  0.00E+00  0.00E+00  0.00E+00  0.00E+00  0.00E+00  0.00E+00  0.00E+00  0.00E+00  0.00E+00  0.00E+00
              0.00E+00  0.00E+00
   9   11.00  0.00E+00  0.00E+00  0.00E+00  0.00E+00  0.00E+00  0.00E+00  0.00E+00  0.00E+00  0.00E+00  0.00E+00  0.00E+00
              0.00E+00  0.00E+00
  10   10.00  0.00E+00  0.00E+00  0.00E+00  0.00E+00  0.00E+00  0.00E+00  0.00E+00  0.00E+00  0.00E+00  0.00E+00  0.00E+00
              0.00E+00  0.00E+00
  11    9.00  0.00E+00  0.00E+00  0.00E+00  0.00E+00  0.00E+00  0.00E+00  0.00E+00  0.00E+00  0.00E+00  0.00E+00  0.00E+00
              0.00E+00  0.00E+00
  12    8.00  0.00E+00  0.00E+00  0.00E+00  0.00E+00  0.00E+00  0.00E+00  0.00E+00  0.00E+00  0.00E+00  0.00E+00  0.00E+00
              0.00E+00  0.00E+00
  13    7.00  0.00E+00  0.00E+00  0.00E+00  0.00E+00  0.00E+00  0.00E+00  0.00E+00  0.00E+00  0.00E+00  0.00E+00  0.00E+00
              0.00E+00  0.00E+00
  14    6.00  0.00E+00  0.00E+00  0.00E+00  0.00E+00  0.00E+00  0.00E+00  0.00E+00  0.00E+00  0.00E+00  0.00E+00  0.00E+00
              0.00E+00  0.00E+00
  15    5.00  0.00E+00  0.00E+00  0.00E+00  0.00E+00  0.00E+00  0.00E+00  0.00E+00  0.00E+00  0.00E+00  0.00E+00  0.00E+00
              0.00E+00  0.00E+00
  16    4.00  0.00E+00  0.00E+00  0.00E+00  0.00E+00  0.00E+00  0.00E+00  0.00E+00  0.00E+00  0.00E+00  0.00E+00  0.00E+00
              0.00E+00  0.00E+00
  17    3.00  0.00E+00  0.00E+00  0.00E+00  0.00E+00  0.00E+00  0.00E+00  0.00E+00  0.00E+00  0.00E+00  0.00E+00  0.00E+00
              0.00E+00  0.00E+00
  18    2.00  0.00E+00  0.00E+00  0.00E+00  0.00E+00  0.00E+00  0.00E+00  0.00E+00  0.00E+00  0.00E+00  0.00E+00  0.00E+00
              0.00E+00  0.00E+00
  19    1.00  0.00E+00  0.00E+00  0.00E+00  0.00E+00  0.00E+00  0.00E+00  0.00E+00  0.00E+00  0.00E+00  0.00E+00  0.00E+00
              0.00E+00  0.00E+00
  20    0.00  0.00E+00  0.00E+00  0.00E+00  0.00E+00  0.00E+00  0.00E+00  0.00E+00  0.00E+00  0.00E+00  0.00E+00  0.00E+00
              0.00E+00  0.00E+00


0SUMMARY OF THE GEOMETRY CALCULATION

          H1      =     20.000 KM
          H2      =      0.000 KM
          ANGLE   =    180.000 DEG
          RANGE   =     20.000 KM
          BETA    =      0.000 DEG
          PHI     =      0.000 DEG
          HMIN    =      0.000 KM
          BENDING =      0.000 DEG
          LEN     =          0




1EQUIVALENT SEA LEVEL TOTAL ABSORBER AMOUNTS

                 HNO3      O3 UV       CNTMSLF1    CNTMSLF2   CNTMFRN
               (ATM CM)   (ATM CM)     (MOL CM-2)  (MOL CM-2)  (MOL CM-2)  (MOL CM-2)

             0.000E+00   0.000E+00   0.000E+00   0.000E+00   0.000E+00


              N2 CONT    MOL SCAT       AER 1       AER 2       AER 3       AER 4     CIRRUS      MEAN RH
                                                                                                  (PRCNT)

             3.678E+00   7.598E+00   1.082E+00   8.102E-02   4.990E-03   0.000E+00   0.000E+00        0.00


                 H2O        O3          CO2         CO          CH4         N2O          O2
               (                                        ATM CM                            )

             0.000E+00   0.000E+00   7.775E+02   0.000E+00   0.000E+00   0.000E+00   1.587E+05

                 NH3        NO          NO2         SO2
                 (               ATM CM               )

             0.000E+00   0.000E+00   0.000E+00   0.000E+00

             CFC-11      CFC-12      CFC-13      CFC-14      CFC-22      CFC-113     CFC-114
                 (                                      ATM CM                            )

             0.000E+00   0.000E+00   0.000E+00   0.000E+00   0.000E+00   0.000E+00   0.000E+00

             CFC-115     CLONO2       HNO4       CHCL2F       CCL4        N2O5  
                 (                                      ATM CM                            )

             0.000E+00   0.000E+00   0.000E+00   0.000E+00   0.000E+00   0.000E+00
  iv           -5
  iv            0
1                                             RADIANCE(WATTS/CM2-STER-XXX)
0  FREQ   WAVLEN    PATH THERMAL      SURFACE EMISSION    SURFACE REFLECTED     TOTAL RADIANCE   INTEGRAL    TOTAL
  (CM-1) (MICRN)    (CM-1)   (MICRN)    (CM-1)   (MICRN)    (CM-1)   (MICRN)    (CM-1)   (MICRN)    (CM-1)   TRANS

      2. 4999.998  4.31E-10  1.72E-13  5.42E-10  2.17E-13  0.00E+00  0.00E+00  9.73E-10  3.89E-13  9.73E-10  0.45354
      4. 2500.000  4.32E-10  6.91E-13  3.47E-09  5.55E-12  0.00E+00  0.00E+00  3.90E-09  6.24E-12  8.78E-09  0.85826
      6. 1666.666  5.94E-11  2.14E-13  8.68E-09  3.12E-11  0.00E+00  0.00E+00  8.74E-09  3.15E-11  2.63E-08  0.99213
      8. 1250.000  1.04E-10  6.63E-13  1.53E-08  9.77E-11  0.00E+00  0.00E+00  1.54E-08  9.83E-11  5.70E-08  0.99245
     10. 1000.000  1.03E-10  1.03E-12  2.37E-08  2.37E-10  0.00E+00  0.00E+00  2.38E-08  2.38E-10  1.05E-07  0.99543
     12.  833.333  1.41E-09  2.03E-11  3.25E-08  4.68E-10  0.00E+00  0.00E+00  3.39E-08  4.88E-10  1.72E-07  0.95245
     14.  714.286  6.43E-09  1.26E-10  3.86E-08  7.56E-10  0.00E+00  0.00E+00  4.50E-08  8.82E-10  2.62E-07  0.83573
     16.  625.000  5.82E-09  1.49E-10  5.32E-08  1.36E-09  0.00E+00  0.00E+00  5.90E-08  1.51E-09  3.80E-07  0.88549
     18.  555.555  6.53E-10  2.12E-11  7.48E-08  2.42E-09  0.00E+00  0.00E+00  7.55E-08  2.45E-09  5.31E-07  0.99045
     20.  500.000  5.23E-10  2.09E-11  9.22E-08  3.69E-09  0.00E+00  0.00E+00  9.27E-08  3.71E-09  7.17E-07  0.99395
     22.  454.545  8.97E-10  4.34E-11  1.11E-07  5.36E-09  0.00E+00  0.00E+00  1.12E-07  5.40E-09  9.40E-07  0.99162
     24.  416.667  1.15E-08  6.62E-10  1.19E-07  6.85E-09  0.00E+00  0.00E+00  1.30E-07  7.51E-09  1.20E-06  0.89962
     26.  384.615  2.65E-08  1.79E-09  1.23E-07  8.31E-09  0.00E+00  0.00E+00  1.49E-07  1.01E-08  1.50E-06  0.79546
     28.  357.143  1.88E-08  1.48E-09  1.56E-07  1.22E-08  0.00E+00  0.00E+00  1.75E-07  1.37E-08  1.85E-06  0.87459
     30.  333.333  1.82E-09  1.63E-10  2.02E-07  1.81E-08  0.00E+00  0.00E+00  2.03E-07  1.83E-08  2.26E-06  0.99035
     32.  312.500  1.61E-09  1.65E-10  2.29E-07  2.34E-08  0.00E+00  0.00E+00  2.30E-07  2.36E-08  2.72E-06  0.99264
     34.  294.118  1.28E-08  1.48E-09  2.44E-07  2.82E-08  0.00E+00  0.00E+00  2.57E-07  2.97E-08  3.23E-06  0.94474
     36.  277.778  3.97E-08  5.15E-09  2.41E-07  3.13E-08  0.00E+00  0.00E+00  2.81E-07  3.64E-08  3.79E-06  0.83885
     38.  263.158  5.10E-08  7.36E-09  2.60E-07  3.75E-08  0.00E+00  0.00E+00  3.11E-07  4.49E-08  4.41E-06  0.80993
     40.  250.000  2.24E-08  3.59E-09  3.27E-07  5.23E-08  0.00E+00  0.00E+00  3.49E-07  5.59E-08  5.11E-06  0.92319
     42.  238.095  3.71E-09  6.54E-10  3.83E-07  6.76E-08  0.00E+00  0.00E+00  3.87E-07  6.83E-08  5.89E-06  0.98981
     44.  227.273  3.73E-09  7.21E-10  4.19E-07  8.11E-08  0.00E+00  0.00E+00  4.23E-07  8.18E-08  6.73E-06  0.99080
     46.  217.391  2.67E-08  5.65E-09  4.29E-07  9.07E-08  0.00E+00  0.00E+00  4.55E-07  9.64E-08  7.64E-06  0.93434
     48.  208.333  7.69E-08  1.77E-08  4.07E-07  9.38E-08  0.00E+00  0.00E+00  4.84E-07  1.12E-07  8.61E-06  0.81927
     50.  200.000  7.78E-08  1.94E-08  4.45E-07  1.11E-07  0.00E+00  0.00E+00  5.23E-07  1.31E-07  9.66E-06  0.82626
     52.  192.308  3.33E-08  9.01E-09  5.40E-07  1.46E-07  0.00E+00  0.00E+00  5.73E-07  1.55E-07  1.08E-05  0.93047
     54.  185.185  6.28E-09  1.83E-09  6.15E-07  1.79E-07  0.00E+00  0.00E+00  6.21E-07  1.81E-07  1.20E-05  0.98948
     56.  178.571  7.58E-09  2.38E-09  6.57E-07  2.06E-07  0.00E+00  0.00E+00  6.64E-07  2.08E-07  1.34E-05  0.98813
     58.  172.414  6.48E-08  2.18E-08  6.33E-07  2.13E-07  0.00E+00  0.00E+00  6.98E-07  2.35E-07  1.48E-05  0.89290
     60.  166.667  1.35E-07  4.84E-08  5.95E-07  2.14E-07  0.00E+00  0.00E+00  7.29E-07  2.62E-07  1.62E-05  0.78736
     62.  161.290  9.20E-08  3.54E-08  6.95E-07  2.67E-07  0.00E+00  0.00E+00  7.86E-07  3.02E-07  1.78E-05  0.86529
     64.  156.250  1.38E-08  5.64E-09  8.36E-07  3.42E-07  0.00E+00  0.00E+00  8.50E-07  3.48E-07  1.95E-05  0.98277
     66.  151.515  9.97E-09  4.34E-09  8.90E-07  3.88E-07  0.00E+00  0.00E+00  9.00E-07  3.92E-07  2.13E-05  0.98867
     68.  147.059  1.48E-08  6.84E-09  9.35E-07  4.32E-07  0.00E+00  0.00E+00  9.50E-07  4.39E-07  2.32E-05  0.98377
     70.  142.857  9.74E-08  4.77E-08  8.89E-07  4.36E-07  0.00E+00  0.00E+00  9.86E-07  4.83E-07  2.52E-05  0.88709
     72.  138.889  1.73E-07  8.95E-08  8.49E-07  4.40E-07  0.00E+00  0.00E+00  1.02E-06  5.30E-07  2.72E-05  0.80492
     74.  135.135  1.05E-07  5.72E-08  9.86E-07  5.40E-07  0.00E+00  0.00E+00  1.09E-06  5.97E-07  2.94E-05  0.88931
     76.  131.579  1.67E-08  9.67E-09  1.15E-06  6.62E-07  0.00E+00  0.00E+00  1.16E-06  6.72E-07  3.17E-05  0.98525
     78.  128.205  1.74E-08  1.06E-08  1.20E-06  7.31E-07  0.00E+00  0.00E+00  1.22E-06  7.42E-07  3.42E-05  0.98544
     80.  125.000  6.05E-08  3.87E-08  1.21E-06  7.73E-07  0.00E+00  0.00E+00  1.27E-06  8.11E-07  3.67E-05  0.94674
     82.  121.951  1.52E-07  1.02E-07  1.16E-06  7.77E-07  0.00E+00  0.00E+00  1.31E-06  8.79E-07  3.93E-05  0.86694
     84.  119.048  1.72E-07  1.21E-07  1.19E-06  8.41E-07  0.00E+00  0.00E+00  1.36E-06  9.62E-07  4.20E-05  0.85468
     86.  116.279  7.51E-08  5.55E-08  1.37E-06  1.01E-06  0.00E+00  0.00E+00  1.44E-06  1.07E-06  4.49E-05  0.94047
     88.  113.636  2.39E-08  1.85E-08  1.49E-06  1.15E-06  0.00E+00  0.00E+00  1.51E-06  1.17E-06  4.79E-05  0.98396
     90.  111.111  2.60E-08  2.11E-08  1.55E-06  1.25E-06  0.00E+00  0.00E+00  1.57E-06  1.27E-06  5.11E-05  0.98320
     92.  108.696  7.00E-08  5.93E-08  1.56E-06  1.32E-06  0.00E+00  0.00E+00  1.63E-06  1.38E-06  5.44E-05  0.95273
     94.  106.383  1.70E-07  1.50E-07  1.50E-06  1.33E-06  0.00E+00  0.00E+00  1.67E-06  1.48E-06  5.77E-05  0.88430
     96.  104.167  1.71E-07  1.57E-07  1.56E-06  1.44E-06  0.00E+00  0.00E+00  1.74E-06  1.60E-06  6.12E-05  0.88670
     98.  102.041  7.88E-08  7.57E-08  1.74E-06  1.67E-06  0.00E+00  0.00E+00  1.82E-06  1.75E-06  6.48E-05  0.95113
    100.  100.000  3.27E-08  3.27E-08  1.86E-06  1.86E-06  0.00E+00  0.00E+00  1.89E-06  1.89E-06  6.86E-05  0.98257
  iv          105
1                                             RADIANCE(WATTS/CM2-STER-XXX)
0  FREQ   WAVLEN    PATH THERMAL      SURFACE EMISSION    SURFACE REFLECTED     TOTAL RADIANCE   INTEGRAL    TOTAL
  (CM-1) (MICRN)    (CM-1)   (MICRN)    (CM-1)   (MICRN)    (CM-1)   (MICRN)    (CM-1)   (MICRN)    (CM-1)   TRANS

    102.   98.039  3.56E-08  3.70E-08  1.92E-06  2.00E-06  0.00E+00  0.00E+00  1.96E-06  2.04E-06  7.25E-05  0.98163
    104.   96.154  1.14E-07  1.23E-07  1.90E-06  2.05E-06  0.00E+00  0.00E+00  2.01E-06  2.18E-06  7.65E-05  0.93680
    106.   94.340  2.26E-07  2.53E-07  1.83E-06  2.06E-06  0.00E+00  0.00E+00  2.06E-06  2.31E-06  8.07E-05  0.87488
    108.   92.593  1.39E-07  1.62E-07  2.01E-06  2.34E-06  0.00E+00  0.00E+00  2.15E-06  2.50E-06  8.50E-05  0.92756
    110.   90.909  4.64E-08  5.61E-08  2.19E-06  2.65E-06  0.00E+00  0.00E+00  2.23E-06  2.70E-06  8.94E-05  0.97896
    112.   89.286  4.62E-08  5.80E-08  2.26E-06  2.83E-06  0.00E+00  0.00E+00  2.30E-06  2.89E-06  9.40E-05  0.97978
    114.   87.719  4.98E-08  6.47E-08  2.32E-06  3.02E-06  0.00E+00  0.00E+00  2.37E-06  3.08E-06  9.88E-05  0.97883
    116.   86.207  1.20E-07  1.61E-07  2.31E-06  3.11E-06  0.00E+00  0.00E+00  2.43E-06  3.27E-06  1.04E-04  0.94632
    118.   84.746  2.20E-07  3.07E-07  2.26E-06  3.15E-06  0.00E+00  0.00E+00  2.48E-06  3.46E-06  1.09E-04  0.89991
    120.   83.333  1.35E-07  1.95E-07  2.44E-06  3.51E-06  0.00E+00  0.00E+00  2.57E-06  3.71E-06  1.14E-04  0.94223
    122.   81.967  5.92E-08  8.82E-08  2.60E-06  3.87E-06  0.00E+00  0.00E+00  2.66E-06  3.96E-06  1.19E-04  0.97757
    124.   80.645  6.10E-08  9.38E-08  2.67E-06  4.11E-06  0.00E+00  0.00E+00  2.73E-06  4.21E-06  1.25E-04  0.97756
    126.   79.365  8.81E-08  1.40E-07  2.72E-06  4.31E-06  0.00E+00  0.00E+00  2.81E-06  4.45E-06  1.30E-04  0.96726
    128.   78.125  1.63E-07  2.67E-07  2.70E-06  4.43E-06  0.00E+00  0.00E+00  2.87E-06  4.70E-06  1.36E-04  0.93796
    130.   76.923  1.75E-07  2.96E-07  2.77E-06  4.67E-06  0.00E+00  0.00E+00  2.94E-06  4.97E-06  1.42E-04  0.93453
    132.   75.758  1.06E-07  1.86E-07  2.92E-06  5.09E-06  0.00E+00  0.00E+00  3.03E-06  5.28E-06  1.48E-04  0.96303
    134.   74.627  8.01E-08  1.44E-07  3.03E-06  5.44E-06  0.00E+00  0.00E+00  3.11E-06  5.58E-06  1.54E-04  0.97410
    136.   73.529  8.39E-08  1.55E-07  3.10E-06  5.74E-06  0.00E+00  0.00E+00  3.19E-06  5.89E-06  1.60E-04  0.97351
    138.   72.464  1.06E-07  2.01E-07  3.16E-06  6.01E-06  0.00E+00  0.00E+00  3.26E-06  6.21E-06  1.67E-04  0.96675
    140.   71.429  1.64E-07  3.21E-07  3.17E-06  6.21E-06  0.00E+00  0.00E+00  3.33E-06  6.53E-06  1.74E-04  0.94766
    142.   70.423  1.87E-07  3.76E-07  3.22E-06  6.49E-06  0.00E+00  0.00E+00  3.40E-06  6.87E-06  1.80E-04  0.94092
    144.   69.444  1.02E-07  2.11E-07  3.40E-06  7.04E-06  0.00E+00  0.00E+00  3.50E-06  7.25E-06  1.87E-04  0.97077
    146.   68.493  1.05E-07  2.24E-07  3.47E-06  7.40E-06  0.00E+00  0.00E+00  3.58E-06  7.62E-06  1.95E-04  0.97048
    148.   67.568  1.10E-07  2.40E-07  3.55E-06  7.77E-06  0.00E+00  0.00E+00  3.65E-06  8.01E-06  2.02E-04  0.96983
    150.   66.667  1.34E-07  3.02E-07  3.60E-06  8.09E-06  0.00E+00  0.00E+00  3.73E-06  8.40E-06  2.09E-04  0.96315
    152.   65.789  1.90E-07  4.40E-07  3.61E-06  8.35E-06  0.00E+00  0.00E+00  3.80E-06  8.79E-06  2.17E-04  0.94709
    154.   64.935  1.48E-07  3.50E-07  3.74E-06  8.88E-06  0.00E+00  0.00E+00  3.89E-06  9.23E-06  2.25E-04  0.96104
    156.   64.103  1.27E-07  3.10E-07  3.85E-06  9.36E-06  0.00E+00  0.00E+00  3.97E-06  9.67E-06  2.33E-04  0.96778
    158.   63.291  1.32E-07  3.29E-07  3.92E-06  9.79E-06  0.00E+00  0.00E+00  4.05E-06  1.01E-05  2.41E-04  0.96732
    160.   62.500  1.42E-07  3.63E-07  3.99E-06  1.02E-05  0.00E+00  0.00E+00  4.13E-06  1.06E-05  2.49E-04  0.96532
    162.   61.728  1.68E-07  4.41E-07  4.04E-06  1.06E-05  0.00E+00  0.00E+00  4.21E-06  1.11E-05  2.57E-04  0.95909
    164.   60.976  1.74E-07  4.69E-07  4.12E-06  1.11E-05  0.00E+00  0.00E+00  4.29E-06  1.15E-05  2.66E-04  0.95826
    166.   60.241  1.57E-07  4.32E-07  4.22E-06  1.16E-05  0.00E+00  0.00E+00  4.38E-06  1.21E-05  2.75E-04  0.96373
    168.   59.524  1.55E-07  4.36E-07  4.31E-06  1.22E-05  0.00E+00  0.00E+00  4.46E-06  1.26E-05  2.84E-04  0.96512
    170.   58.824  1.59E-07  4.59E-07  4.38E-06  1.27E-05  0.00E+00  0.00E+00  4.54E-06  1.31E-05  2.93E-04  0.96476
    172.   58.140  1.66E-07  4.92E-07  4.46E-06  1.32E-05  0.00E+00  0.00E+00  4.63E-06  1.37E-05  3.02E-04  0.96374
    174.   57.471  1.82E-07  5.52E-07  4.52E-06  1.37E-05  0.00E+00  0.00E+00  4.71E-06  1.42E-05  3.11E-04  0.96064
    176.   56.818  1.87E-07  5.79E-07  4.60E-06  1.43E-05  0.00E+00  0.00E+00  4.79E-06  1.48E-05  3.21E-04  0.96033
    178.   56.180  1.80E-07  5.69E-07  4.69E-06  1.49E-05  0.00E+00  0.00E+00  4.87E-06  1.54E-05  3.31E-04  0.96279
    180.   55.556  1.81E-07  5.85E-07  4.78E-06  1.55E-05  0.00E+00  0.00E+00  4.96E-06  1.61E-05  3.41E-04  0.96325
    182.   54.945  1.85E-07  6.13E-07  4.85E-06  1.61E-05  0.00E+00  0.00E+00  5.04E-06  1.67E-05  3.51E-04  0.96297
    184.   54.348  1.92E-07  6.51E-07  4.93E-06  1.67E-05  0.00E+00  0.00E+00  5.12E-06  1.73E-05  3.61E-04  0.96212
    186.   53.763  2.05E-07  7.10E-07  5.00E-06  1.73E-05  0.00E+00  0.00E+00  5.20E-06  1.80E-05  3.71E-04  0.96004
    188.   53.191  2.02E-07  7.13E-07  5.09E-06  1.80E-05  0.00E+00  0.00E+00  5.29E-06  1.87E-05  3.82E-04  0.96150
    190.   52.632  2.03E-07  7.33E-07  5.17E-06  1.87E-05  0.00E+00  0.00E+00  5.37E-06  1.94E-05  3.93E-04  0.96190
    192.   52.083  2.07E-07  7.65E-07  5.25E-06  1.93E-05  0.00E+00  0.00E+00  5.46E-06  2.01E-05  4.04E-04  0.96166
    194.   51.546  2.13E-07  8.00E-07  5.33E-06  2.00E-05  0.00E+00  0.00E+00  5.54E-06  2.08E-05  4.15E-04  0.96129
    196.   51.020  2.20E-07  8.43E-07  5.40E-06  2.08E-05  0.00E+00  0.00E+00  5.62E-06  2.16E-05  4.26E-04  0.96056
    198.   50.505  2.24E-07  8.79E-07  5.48E-06  2.15E-05  0.00E+00  0.00E+00  5.71E-06  2.24E-05  4.37E-04  0.96030
    200.   50.000  2.26E-07  9.05E-07  5.56E-06  2.23E-05  0.00E+00  0.00E+00  5.79E-06  2.32E-05  4.49E-04  0.96054
  iv          205
1                                             RADIANCE(WATTS/CM2-STER-XXX)
0  FREQ   WAVLEN    PATH THERMAL      SURFACE EMISSION    SURFACE REFLECTED     TOTAL RADIANCE   INTEGRAL    TOTAL
  (CM-1) (MICRN)    (CM-1)   (MICRN)    (CM-1)   (MICRN)    (CM-1)   (MICRN)    (CM-1)   (MICRN)    (CM-1)   TRANS

    202.   49.505  2.31E-07  9.42E-07  5.64E-06  2.30E-05  0.00E+00  0.00E+00  5.87E-06  2.40E-05  4.61E-04  0.96033
    204.   49.020  2.36E-07  9.84E-07  5.72E-06  2.38E-05  0.00E+00  0.00E+00  5.96E-06  2.48E-05  4.73E-04  0.95996
    206.   48.544  2.42E-07  1.03E-06  5.80E-06  2.46E-05  0.00E+00  0.00E+00  6.04E-06  2.56E-05  4.85E-04  0.95952
    208.   48.077  2.48E-07  1.07E-06  5.88E-06  2.54E-05  0.00E+00  0.00E+00  6.12E-06  2.65E-05  4.97E-04  0.95906
    210.   47.619  2.54E-07  1.12E-06  5.95E-06  2.63E-05  0.00E+00  0.00E+00  6.21E-06  2.74E-05  5.09E-04  0.95863
    212.   47.170  2.58E-07  1.16E-06  6.03E-06  2.71E-05  0.00E+00  0.00E+00  6.29E-06  2.83E-05  5.22E-04  0.95858
    214.   46.729  2.64E-07  1.21E-06  6.11E-06  2.80E-05  0.00E+00  0.00E+00  6.37E-06  2.92E-05  5.35E-04  0.95825
    216.   46.296  2.69E-07  1.26E-06  6.19E-06  2.89E-05  0.00E+00  0.00E+00  6.46E-06  3.01E-05  5.48E-04  0.95793
    218.   45.872  2.75E-07  1.31E-06  6.27E-06  2.98E-05  0.00E+00  0.00E+00  6.54E-06  3.11E-05  5.61E-04  0.95758
    220.   45.455  2.81E-07  1.36E-06  6.34E-06  3.07E-05  0.00E+00  0.00E+00  6.62E-06  3.21E-05  5.74E-04  0.95715
    222.   45.045  2.86E-07  1.41E-06  6.42E-06  3.16E-05  0.00E+00  0.00E+00  6.71E-06  3.31E-05  5.87E-04  0.95698
    224.   44.643  2.91E-07  1.46E-06  6.50E-06  3.26E-05  0.00E+00  0.00E+00  6.79E-06  3.41E-05  6.01E-04  0.95670
    226.   44.248  2.97E-07  1.52E-06  6.58E-06  3.36E-05  0.00E+00  0.00E+00  6.87E-06  3.51E-05  6.15E-04  0.95641
    228.   43.860  3.02E-07  1.57E-06  6.65E-06  3.46E-05  0.00E+00  0.00E+00  6.96E-06  3.62E-05  6.29E-04  0.95611
    230.   43.478  3.08E-07  1.63E-06  6.73E-06  3.56E-05  0.00E+00  0.00E+00  7.04E-06  3.72E-05  6.43E-04  0.95581
    232.   43.103  3.13E-07  1.69E-06  6.81E-06  3.66E-05  0.00E+00  0.00E+00  7.12E-06  3.83E-05  6.57E-04  0.95553
    234.   42.735  3.19E-07  1.75E-06  6.88E-06  3.77E-05  0.00E+00  0.00E+00  7.20E-06  3.94E-05  6.71E-04  0.95528
    236.   42.373  3.24E-07  1.81E-06  6.96E-06  3.88E-05  0.00E+00  0.00E+00  7.28E-06  4.06E-05  6.86E-04  0.95501
    238.   42.017  3.30E-07  1.87E-06  7.04E-06  3.99E-05  0.00E+00  0.00E+00  7.37E-06  4.17E-05  7.01E-04  0.95475
    240.   41.667  3.35E-07  1.93E-06  7.11E-06  4.10E-05  0.00E+00  0.00E+00  7.45E-06  4.29E-05  7.16E-04  0.95448
    242.   41.322  3.41E-07  2.00E-06  7.19E-06  4.21E-05  0.00E+00  0.00E+00  7.53E-06  4.41E-05  7.31E-04  0.95422
    244.   40.984  3.47E-07  2.06E-06  7.26E-06  4.33E-05  0.00E+00  0.00E+00  7.61E-06  4.53E-05  7.46E-04  0.95398
    246.   40.650  3.52E-07  2.13E-06  7.34E-06  4.44E-05  0.00E+00  0.00E+00  7.69E-06  4.66E-05  7.61E-04  0.95373
    248.   40.323  3.58E-07  2.20E-06  7.42E-06  4.56E-05  0.00E+00  0.00E+00  7.77E-06  4.78E-05  7.77E-04  0.95349
    250.   40.000  3.63E-07  2.27E-06  7.49E-06  4.68E-05  0.00E+00  0.00E+00  7.85E-06  4.91E-05  7.92E-04  0.95327
    252.   39.683  3.68E-07  2.33E-06  7.57E-06  4.81E-05  0.00E+00  0.00E+00  7.93E-06  5.04E-05  8.08E-04  0.95316
    254.   39.370  3.72E-07  2.40E-06  7.64E-06  4.93E-05  0.00E+00  0.00E+00  8.01E-06  5.17E-05  8.24E-04  0.95306
    256.   39.063  3.76E-07  2.47E-06  7.72E-06  5.06E-05  0.00E+00  0.00E+00  8.09E-06  5.30E-05  8.41E-04  0.95298
    258.   38.760  3.81E-07  2.53E-06  7.79E-06  5.19E-05  0.00E+00  0.00E+00  8.17E-06  5.44E-05  8.57E-04  0.95289
    260.   38.462  3.85E-07  2.60E-06  7.87E-06  5.32E-05  0.00E+00  0.00E+00  8.25E-06  5.58E-05  8.73E-04  0.95280
    262.   38.168  3.89E-07  2.67E-06  7.94E-06  5.45E-05  0.00E+00  0.00E+00  8.33E-06  5.72E-05  8.90E-04  0.95272
    264.   37.879  3.94E-07  2.74E-06  8.02E-06  5.59E-05  0.00E+00  0.00E+00  8.41E-06  5.86E-05  9.07E-04  0.95263
    266.   37.594  3.98E-07  2.82E-06  8.09E-06  5.73E-05  0.00E+00  0.00E+00  8.49E-06  6.01E-05  9.24E-04  0.95255
    268.   37.313  4.02E-07  2.89E-06  8.17E-06  5.86E-05  0.00E+00  0.00E+00  8.57E-06  6.15E-05  9.41E-04  0.95247
    270.   37.037  4.07E-07  2.96E-06  8.24E-06  6.01E-05  0.00E+00  0.00E+00  8.65E-06  6.30E-05  9.58E-04  0.95239
    272.   36.765  4.11E-07  3.04E-06  8.31E-06  6.15E-05  0.00E+00  0.00E+00  8.72E-06  6.45E-05  9.76E-04  0.95231
    274.   36.496  4.15E-07  3.12E-06  8.39E-06  6.30E-05  0.00E+00  0.00E+00  8.80E-06  6.61E-05  9.93E-04  0.95224
    276.   36.232  4.19E-07  3.20E-06  8.46E-06  6.44E-05  0.00E+00  0.00E+00  8.88E-06  6.76E-05  1.01E-03  0.95216
    278.   35.971  4.24E-07  3.27E-06  8.53E-06  6.59E-05  0.00E+00  0.00E+00  8.95E-06  6.92E-05  1.03E-03  0.95208
    280.   35.714  4.28E-07  3.36E-06  8.60E-06  6.74E-05  0.00E+00  0.00E+00  9.03E-06  7.08E-05  1.05E-03  0.95201
    282.   35.461  4.32E-07  3.44E-06  8.67E-06  6.90E-05  0.00E+00  0.00E+00  9.11E-06  7.24E-05  1.07E-03  0.95194
    284.   35.211  4.36E-07  3.52E-06  8.75E-06  7.05E-05  0.00E+00  0.00E+00  9.18E-06  7.41E-05  1.08E-03  0.95186
    286.   34.965  4.41E-07  3.60E-06  8.82E-06  7.21E-05  0.00E+00  0.00E+00  9.26E-06  7.57E-05  1.10E-03  0.95179
    288.   34.722  4.45E-07  3.69E-06  8.89E-06  7.37E-05  0.00E+00  0.00E+00  9.33E-06  7.74E-05  1.12E-03  0.95172
    290.   34.483  4.49E-07  3.77E-06  8.96E-06  7.53E-05  0.00E+00  0.00E+00  9.41E-06  7.91E-05  1.14E-03  0.95165
    292.   34.247  4.53E-07  3.86E-06  9.03E-06  7.70E-05  0.00E+00  0.00E+00  9.48E-06  8.08E-05  1.16E-03  0.95159
    294.   34.014  4.57E-07  3.95E-06  9.10E-06  7.86E-05  0.00E+00  0.00E+00  9.56E-06  8.26E-05  1.18E-03  0.95152
    296.   33.784  4.61E-07  4.04E-06  9.17E-06  8.03E-05  0.00E+00  0.00E+00  9.63E-06  8.44E-05  1.20E-03  0.95145
    298.   33.557  4.65E-07  4.13E-06  9.24E-06  8.20E-05  0.00E+00  0.00E+00  9.70E-06  8.62E-05  1.22E-03  0.95139
    300.   33.333  4.69E-07  4.22E-06  9.31E-06  8.37E-05  0.00E+00  0.00E+00  9.77E-06  8.80E-05  1.24E-03  0.95132
  iv          305
1                                             RADIANCE(WATTS/CM2-STER-XXX)
0  FREQ   WAVLEN    PATH THERMAL      SURFACE EMISSION    SURFACE REFLECTED     TOTAL RADIANCE   INTEGRAL    TOTAL
  (CM-1) (MICRN)    (CM-1)   (MICRN)    (CM-1)   (MICRN)    (CM-1)   (MICRN)    (CM-1)   (MICRN)    (CM-1)   TRANS

    302.   33.113  4.73E-07  4.32E-06  9.37E-06  8.55E-05  0.00E+00  0.00E+00  9.85E-06  8.98E-05  1.26E-03  0.95126
    304.   32.895  4.77E-07  4.41E-06  9.44E-06  8.73E-05  0.00E+00  0.00E+00  9.92E-06  9.17E-05  1.28E-03  0.95119
    306.   32.680  4.81E-07  4.51E-06  9.51E-06  8.90E-05  0.00E+00  0.00E+00  9.99E-06  9.35E-05  1.30E-03  0.95113
    308.   32.468  4.85E-07  4.60E-06  9.58E-06  9.08E-05  0.00E+00  0.00E+00  1.01E-05  9.54E-05  1.32E-03  0.95107
    310.   32.258  4.89E-07  4.70E-06  9.64E-06  9.27E-05  0.00E+00  0.00E+00  1.01E-05  9.74E-05  1.34E-03  0.95101
    312.   32.051  4.93E-07  4.80E-06  9.71E-06  9.45E-05  0.00E+00  0.00E+00  1.02E-05  9.93E-05  1.36E-03  0.95095
    314.   31.847  4.97E-07  4.90E-06  9.77E-06  9.64E-05  0.00E+00  0.00E+00  1.03E-05  1.01E-04  1.38E-03  0.95089
    316.   31.646  5.01E-07  5.00E-06  9.84E-06  9.83E-05  0.00E+00  0.00E+00  1.03E-05  1.03E-04  1.40E-03  0.95083
    318.   31.447  5.05E-07  5.11E-06  9.90E-06  1.00E-04  0.00E+00  0.00E+00  1.04E-05  1.05E-04  1.42E-03  0.95077
    320.   31.250  5.09E-07  5.21E-06  9.97E-06  1.02E-04  0.00E+00  0.00E+00  1.05E-05  1.07E-04  1.44E-03  0.95072
    322.   31.056  5.13E-07  5.31E-06  1.00E-05  1.04E-04  0.00E+00  0.00E+00  1.05E-05  1.09E-04  1.46E-03  0.95066
    324.   30.864  5.16E-07  5.42E-06  1.01E-05  1.06E-04  0.00E+00  0.00E+00  1.06E-05  1.11E-04  1.48E-03  0.95061
    326.   30.675  5.20E-07  5.53E-06  1.02E-05  1.08E-04  0.00E+00  0.00E+00  1.07E-05  1.14E-04  1.50E-03  0.95055
    328.   30.488  5.24E-07  5.64E-06  1.02E-05  1.10E-04  0.00E+00  0.00E+00  1.07E-05  1.16E-04  1.52E-03  0.95050
    330.   30.303  5.28E-07  5.75E-06  1.03E-05  1.12E-04  0.00E+00  0.00E+00  1.08E-05  1.18E-04  1.55E-03  0.95044
    332.   30.120  5.32E-07  5.86E-06  1.03E-05  1.14E-04  0.00E+00  0.00E+00  1.09E-05  1.20E-04  1.57E-03  0.95034
    334.   29.940  5.36E-07  5.98E-06  1.04E-05  1.16E-04  0.00E+00  0.00E+00  1.09E-05  1.22E-04  1.59E-03  0.95023
    336.   29.762  5.41E-07  6.11E-06  1.05E-05  1.18E-04  0.00E+00  0.00E+00  1.10E-05  1.24E-04  1.61E-03  0.95007
    338.   29.586  5.46E-07  6.24E-06  1.05E-05  1.20E-04  0.00E+00  0.00E+00  1.11E-05  1.27E-04  1.63E-03  0.94986
    340.   29.412  5.52E-07  6.38E-06  1.06E-05  1.22E-04  0.00E+00  0.00E+00  1.11E-05  1.29E-04  1.66E-03  0.94965
    342.   29.240  5.57E-07  6.52E-06  1.06E-05  1.24E-04  0.00E+00  0.00E+00  1.12E-05  1.31E-04  1.68E-03  0.94944
    344.   29.070  5.62E-07  6.66E-06  1.07E-05  1.27E-04  0.00E+00  0.00E+00  1.13E-05  1.33E-04  1.70E-03  0.94924
    346.   28.902  5.68E-07  6.80E-06  1.08E-05  1.29E-04  0.00E+00  0.00E+00  1.13E-05  1.36E-04  1.72E-03  0.94904
    348.   28.736  5.73E-07  6.94E-06  1.08E-05  1.31E-04  0.00E+00  0.00E+00  1.14E-05  1.38E-04  1.75E-03  0.94884
    350.   28.571  5.78E-07  7.08E-06  1.09E-05  1.33E-04  0.00E+00  0.00E+00  1.14E-05  1.40E-04  1.77E-03  0.94864
    352.   28.409  5.84E-07  7.23E-06  1.09E-05  1.35E-04  0.00E+00  0.00E+00  1.15E-05  1.43E-04  1.79E-03  0.94845
    354.   28.249  5.89E-07  7.38E-06  1.10E-05  1.38E-04  0.00E+00  0.00E+00  1.16E-05  1.45E-04  1.82E-03  0.94826
    356.   28.090  5.94E-07  7.53E-06  1.10E-05  1.40E-04  0.00E+00  0.00E+00  1.16E-05  1.47E-04  1.84E-03  0.94807
    358.   27.933  5.99E-07  7.68E-06  1.11E-05  1.42E-04  0.00E+00  0.00E+00  1.17E-05  1.50E-04  1.86E-03  0.94788
    360.   27.778  6.04E-07  7.83E-06  1.11E-05  1.44E-04  0.00E+00  0.00E+00  1.17E-05  1.52E-04  1.89E-03  0.94769
    362.   27.624  6.09E-07  7.98E-06  1.12E-05  1.47E-04  0.00E+00  0.00E+00  1.18E-05  1.55E-04  1.91E-03  0.94751
    364.   27.473  6.14E-07  8.14E-06  1.12E-05  1.49E-04  0.00E+00  0.00E+00  1.19E-05  1.57E-04  1.93E-03  0.94733
    366.   27.322  6.19E-07  8.29E-06  1.13E-05  1.51E-04  0.00E+00  0.00E+00  1.19E-05  1.60E-04  1.96E-03  0.94715
    368.   27.174  6.24E-07  8.45E-06  1.14E-05  1.54E-04  0.00E+00  0.00E+00  1.20E-05  1.62E-04  1.98E-03  0.94697
    370.   27.027  6.29E-07  8.61E-06  1.14E-05  1.56E-04  0.00E+00  0.00E+00  1.20E-05  1.65E-04  2.00E-03  0.94679
    372.   26.882  6.34E-07  8.77E-06  1.15E-05  1.59E-04  0.00E+00  0.00E+00  1.21E-05  1.67E-04  2.03E-03  0.94662
    374.   26.738  6.39E-07  8.94E-06  1.15E-05  1.61E-04  0.00E+00  0.00E+00  1.21E-05  1.70E-04  2.05E-03  0.94644
    376.   26.596  6.44E-07  9.10E-06  1.16E-05  1.63E-04  0.00E+00  0.00E+00  1.22E-05  1.72E-04  2.08E-03  0.94627
    378.   26.455  6.49E-07  9.27E-06  1.16E-05  1.66E-04  0.00E+00  0.00E+00  1.23E-05  1.75E-04  2.10E-03  0.94611
    380.   26.316  6.53E-07  9.43E-06  1.17E-05  1.68E-04  0.00E+00  0.00E+00  1.23E-05  1.78E-04  2.13E-03  0.94594
    382.   26.178  6.58E-07  9.60E-06  1.17E-05  1.71E-04  0.00E+00  0.00E+00  1.24E-05  1.80E-04  2.15E-03  0.94577
    384.   26.042  6.63E-07  9.77E-06  1.17E-05  1.73E-04  0.00E+00  0.00E+00  1.24E-05  1.83E-04  2.18E-03  0.94561
    386.   25.907  6.67E-07  9.94E-06  1.18E-05  1.76E-04  0.00E+00  0.00E+00  1.25E-05  1.86E-04  2.20E-03  0.94545
    388.   25.773  6.72E-07  1.01E-05  1.18E-05  1.78E-04  0.00E+00  0.00E+00  1.25E-05  1.88E-04  2.23E-03  0.94529
    390.   25.641  6.77E-07  1.03E-05  1.19E-05  1.81E-04  0.00E+00  0.00E+00  1.26E-05  1.91E-04  2.25E-03  0.94513
    392.   25.510  6.81E-07  1.05E-05  1.19E-05  1.83E-04  0.00E+00  0.00E+00  1.26E-05  1.94E-04  2.28E-03  0.94497
    394.   25.381  6.86E-07  1.06E-05  1.20E-05  1.86E-04  0.00E+00  0.00E+00  1.27E-05  1.97E-04  2.30E-03  0.94482
    396.   25.253  6.90E-07  1.08E-05  1.20E-05  1.89E-04  0.00E+00  0.00E+00  1.27E-05  1.99E-04  2.33E-03  0.94466
    398.   25.126  6.95E-07  1.10E-05  1.21E-05  1.91E-04  0.00E+00  0.00E+00  1.28E-05  2.02E-04  2.35E-03  0.94451
    400.   25.000  7.00E-07  1.12E-05  1.21E-05  1.94E-04  0.00E+00  0.00E+00  1.28E-05  2.05E-04  2.38E-03  0.94434
  iv          405
1                                             RADIANCE(WATTS/CM2-STER-XXX)
0  FREQ   WAVLEN    PATH THERMAL      SURFACE EMISSION    SURFACE REFLECTED     TOTAL RADIANCE   INTEGRAL    TOTAL
  (CM-1) (MICRN)    (CM-1)   (MICRN)    (CM-1)   (MICRN)    (CM-1)   (MICRN)    (CM-1)   (MICRN)    (CM-1)   TRANS

    402.   24.876  7.06E-07  1.14E-05  1.22E-05  1.96E-04  0.00E+00  0.00E+00  1.29E-05  2.08E-04  2.40E-03  0.94406
    404.   24.752  7.12E-07  1.16E-05  1.22E-05  1.99E-04  0.00E+00  0.00E+00  1.29E-05  2.11E-04  2.43E-03  0.94375
    406.   24.631  7.18E-07  1.18E-05  1.22E-05  2.02E-04  0.00E+00  0.00E+00  1.30E-05  2.14E-04  2.46E-03  0.94345
    408.   24.510  7.24E-07  1.21E-05  1.23E-05  2.04E-04  0.00E+00  0.00E+00  1.30E-05  2.16E-04  2.48E-03  0.94316
    410.   24.390  7.31E-07  1.23E-05  1.23E-05  2.07E-04  0.00E+00  0.00E+00  1.30E-05  2.19E-04  2.51E-03  0.94286
    412.   24.272  7.37E-07  1.25E-05  1.24E-05  2.10E-04  0.00E+00  0.00E+00  1.31E-05  2.22E-04  2.53E-03  0.94257
    414.   24.155  7.43E-07  1.27E-05  1.24E-05  2.12E-04  0.00E+00  0.00E+00  1.31E-05  2.25E-04  2.56E-03  0.94228
    416.   24.038  7.49E-07  1.30E-05  1.24E-05  2.15E-04  0.00E+00  0.00E+00  1.32E-05  2.28E-04  2.59E-03  0.94200
    418.   23.923  7.55E-07  1.32E-05  1.25E-05  2.18E-04  0.00E+00  0.00E+00  1.32E-05  2.31E-04  2.61E-03  0.94172
    420.   23.810  7.61E-07  1.34E-05  1.25E-05  2.21E-04  0.00E+00  0.00E+00  1.33E-05  2.34E-04  2.64E-03  0.94143
    422.   23.697  7.67E-07  1.37E-05  1.25E-05  2.23E-04  0.00E+00  0.00E+00  1.33E-05  2.37E-04  2.67E-03  0.94116
    424.   23.585  7.73E-07  1.39E-05  1.26E-05  2.26E-04  0.00E+00  0.00E+00  1.33E-05  2.40E-04  2.69E-03  0.94088
    426.   23.474  7.79E-07  1.41E-05  1.26E-05  2.29E-04  0.00E+00  0.00E+00  1.34E-05  2.43E-04  2.72E-03  0.94061
    428.   23.364  7.84E-07  1.44E-05  1.26E-05  2.32E-04  0.00E+00  0.00E+00  1.34E-05  2.46E-04  2.75E-03  0.94034
    430.   23.256  7.90E-07  1.46E-05  1.27E-05  2.34E-04  0.00E+00  0.00E+00  1.35E-05  2.49E-04  2.77E-03  0.94007
    432.   23.148  7.96E-07  1.49E-05  1.27E-05  2.37E-04  0.00E+00  0.00E+00  1.35E-05  2.52E-04  2.80E-03  0.93981
    434.   23.041  8.01E-07  1.51E-05  1.27E-05  2.40E-04  0.00E+00  0.00E+00  1.35E-05  2.55E-04  2.83E-03  0.93955
    436.   22.936  8.07E-07  1.53E-05  1.28E-05  2.43E-04  0.00E+00  0.00E+00  1.36E-05  2.58E-04  2.86E-03  0.93929
    438.   22.831  8.13E-07  1.56E-05  1.28E-05  2.46E-04  0.00E+00  0.00E+00  1.36E-05  2.61E-04  2.88E-03  0.93903
    440.   22.727  8.18E-07  1.58E-05  1.28E-05  2.49E-04  0.00E+00  0.00E+00  1.37E-05  2.64E-04  2.91E-03  0.93877
    442.   22.624  8.24E-07  1.61E-05  1.29E-05  2.51E-04  0.00E+00  0.00E+00  1.37E-05  2.68E-04  2.94E-03  0.93849
    444.   22.523  8.29E-07  1.64E-05  1.29E-05  2.54E-04  0.00E+00  0.00E+00  1.37E-05  2.71E-04  2.96E-03  0.93824
    446.   22.422  8.35E-07  1.66E-05  1.29E-05  2.57E-04  0.00E+00  0.00E+00  1.38E-05  2.74E-04  2.99E-03  0.93797
    448.   22.321  8.41E-07  1.69E-05  1.30E-05  2.60E-04  0.00E+00  0.00E+00  1.38E-05  2.77E-04  3.02E-03  0.93771
    450.   22.222  8.46E-07  1.71E-05  1.30E-05  2.63E-04  0.00E+00  0.00E+00  1.38E-05  2.80E-04  3.05E-03  0.93747
    452.   22.124  8.52E-07  1.74E-05  1.30E-05  2.66E-04  0.00E+00  0.00E+00  1.39E-05  2.83E-04  3.08E-03  0.93719
    454.   22.026  8.57E-07  1.77E-05  1.30E-05  2.69E-04  0.00E+00  0.00E+00  1.39E-05  2.87E-04  3.10E-03  0.93693
    456.   21.930  8.62E-07  1.79E-05  1.31E-05  2.72E-04  0.00E+00  0.00E+00  1.39E-05  2.90E-04  3.13E-03  0.93671
    458.   21.834  8.67E-07  1.82E-05  1.31E-05  2.75E-04  0.00E+00  0.00E+00  1.40E-05  2.93E-04  3.16E-03  0.93643
    460.   21.739  8.73E-07  1.85E-05  1.31E-05  2.78E-04  0.00E+00  0.00E+00  1.40E-05  2.96E-04  3.19E-03  0.93619
    462.   21.645  8.77E-07  1.87E-05  1.32E-05  2.81E-04  0.00E+00  0.00E+00  1.40E-05  3.00E-04  3.21E-03  0.93599
    464.   21.552  8.82E-07  1.90E-05  1.32E-05  2.84E-04  0.00E+00  0.00E+00  1.41E-05  3.03E-04  3.24E-03  0.93577
    466.   21.459  8.87E-07  1.93E-05  1.32E-05  2.87E-04  0.00E+00  0.00E+00  1.41E-05  3.06E-04  3.27E-03  0.93553
    468.   21.368  8.91E-07  1.95E-05  1.32E-05  2.90E-04  0.00E+00  0.00E+00  1.41E-05  3.09E-04  3.30E-03  0.93537
    470.   21.277  9.06E-07  2.00E-05  1.32E-05  2.93E-04  0.00E+00  0.00E+00  1.42E-05  3.13E-04  3.33E-03  0.93431
    472.   21.186  9.10E-07  2.03E-05  1.33E-05  2.96E-04  0.00E+00  0.00E+00  1.42E-05  3.16E-04  3.36E-03  0.93409
    474.   21.097  8.95E-07  2.01E-05  1.33E-05  2.99E-04  0.00E+00  0.00E+00  1.42E-05  3.19E-04  3.38E-03  0.93541
    476.   21.008  8.97E-07  2.03E-05  1.33E-05  3.02E-04  0.00E+00  0.00E+00  1.42E-05  3.23E-04  3.41E-03  0.93542
    478.   20.921  8.98E-07  2.05E-05  1.34E-05  3.05E-04  0.00E+00  0.00E+00  1.43E-05  3.26E-04  3.44E-03  0.93546
    480.   20.833  9.01E-07  2.08E-05  1.34E-05  3.08E-04  0.00E+00  0.00E+00  1.43E-05  3.29E-04  3.47E-03  0.93534
    482.   20.747  8.99E-07  2.09E-05  1.34E-05  3.12E-04  0.00E+00  0.00E+00  1.43E-05  3.33E-04  3.50E-03  0.93555
    484.   20.661  9.01E-07  2.11E-05  1.34E-05  3.15E-04  0.00E+00  0.00E+00  1.43E-05  3.36E-04  3.53E-03  0.93550
    486.   20.576  9.01E-07  2.13E-05  1.35E-05  3.18E-04  0.00E+00  0.00E+00  1.44E-05  3.39E-04  3.56E-03  0.93564
    488.   20.492  9.02E-07  2.15E-05  1.35E-05  3.21E-04  0.00E+00  0.00E+00  1.44E-05  3.43E-04  3.58E-03  0.93561
    490.   20.408  9.04E-07  2.17E-05  1.35E-05  3.24E-04  0.00E+00  0.00E+00  1.44E-05  3.46E-04  3.61E-03  0.93560
    492.   20.325  9.04E-07  2.19E-05  1.35E-05  3.28E-04  0.00E+00  0.00E+00  1.44E-05  3.49E-04  3.64E-03  0.93567
    494.   20.243  9.05E-07  2.21E-05  1.36E-05  3.31E-04  0.00E+00  0.00E+00  1.45E-05  3.53E-04  3.67E-03  0.93567
    496.   20.161  9.05E-07  2.23E-05  1.36E-05  3.34E-04  0.00E+00  0.00E+00  1.45E-05  3.56E-04  3.70E-03  0.93577
    498.   20.080  9.05E-07  2.25E-05  1.36E-05  3.37E-04  0.00E+00  0.00E+00  1.45E-05  3.60E-04  3.73E-03  0.93581
    500.   20.000  9.06E-07  2.27E-05  1.36E-05  3.40E-04  0.00E+00  0.00E+00  1.45E-05  3.63E-04  3.76E-03  0.93582
  iv          505
1                                             RADIANCE(WATTS/CM2-STER-XXX)
0  FREQ   WAVLEN    PATH THERMAL      SURFACE EMISSION    SURFACE REFLECTED     TOTAL RADIANCE   INTEGRAL    TOTAL
  (CM-1) (MICRN)    (CM-1)   (MICRN)    (CM-1)   (MICRN)    (CM-1)   (MICRN)    (CM-1)   (MICRN)    (CM-1)   TRANS

    502.   19.920  9.06E-07  2.28E-05  1.36E-05  3.44E-04  0.00E+00  0.00E+00  1.45E-05  3.66E-04  3.79E-03  0.93590
    504.   19.841  9.09E-07  2.31E-05  1.37E-05  3.47E-04  0.00E+00  0.00E+00  1.46E-05  3.70E-04  3.82E-03  0.93577
    506.   19.763  9.14E-07  2.34E-05  1.37E-05  3.50E-04  0.00E+00  0.00E+00  1.46E-05  3.73E-04  3.85E-03  0.93546
    508.   19.685  1.02E-06  2.64E-05  1.36E-05  3.50E-04  0.00E+00  0.00E+00  1.46E-05  3.76E-04  3.88E-03  0.92680
    510.   19.608  9.77E-07  2.54E-05  1.36E-05  3.55E-04  0.00E+00  0.00E+00  1.46E-05  3.80E-04  3.90E-03  0.93064
    512.   19.531  9.64E-07  2.53E-05  1.37E-05  3.58E-04  0.00E+00  0.00E+00  1.46E-05  3.83E-04  3.93E-03  0.93163
    514.   19.455  9.90E-07  2.62E-05  1.36E-05  3.61E-04  0.00E+00  0.00E+00  1.46E-05  3.87E-04  3.96E-03  0.92962
    516.   19.380  9.88E-07  2.63E-05  1.37E-05  3.64E-04  0.00E+00  0.00E+00  1.47E-05  3.90E-04  3.99E-03  0.92980
    518.   19.305  1.05E-06  2.83E-05  1.36E-05  3.65E-04  0.00E+00  0.00E+00  1.47E-05  3.93E-04  4.02E-03  0.92460
    520.   19.231  1.10E-06  2.99E-05  1.36E-05  3.67E-04  0.00E+00  0.00E+00  1.47E-05  3.97E-04  4.05E-03  0.92045
    522.   19.157  1.08E-06  2.95E-05  1.36E-05  3.71E-04  0.00E+00  0.00E+00  1.47E-05  4.00E-04  4.08E-03  0.92217
    524.   19.084  1.19E-06  3.28E-05  1.35E-05  3.70E-04  0.00E+00  0.00E+00  1.47E-05  4.03E-04  4.11E-03  0.91316
    526.   19.011  1.27E-06  3.51E-05  1.34E-05  3.71E-04  0.00E+00  0.00E+00  1.47E-05  4.06E-04  4.14E-03  0.90697
    528.   18.939  1.21E-06  3.37E-05  1.35E-05  3.76E-04  0.00E+00  0.00E+00  1.47E-05  4.10E-04  4.17E-03  0.91201
    530.   18.868  1.32E-06  3.71E-05  1.34E-05  3.75E-04  0.00E+00  0.00E+00  1.47E-05  4.12E-04  4.20E-03  0.90256
    532.   18.797  1.32E-06  3.74E-05  1.34E-05  3.79E-04  0.00E+00  0.00E+00  1.47E-05  4.16E-04  4.23E-03  0.90246
    534.   18.727  1.20E-06  3.42E-05  1.35E-05  3.86E-04  0.00E+00  0.00E+00  1.47E-05  4.20E-04  4.26E-03  0.91250
    536.   18.657  1.22E-06  3.51E-05  1.35E-05  3.88E-04  0.00E+00  0.00E+00  1.47E-05  4.23E-04  4.29E-03  0.91069
    538.   18.587  1.25E-06  3.61E-05  1.35E-05  3.91E-04  0.00E+00  0.00E+00  1.47E-05  4.27E-04  4.32E-03  0.90859
    540.   18.519  1.14E-06  3.33E-05  1.36E-05  3.98E-04  0.00E+00  0.00E+00  1.48E-05  4.31E-04  4.34E-03  0.91756
    542.   18.450  1.08E-06  3.19E-05  1.37E-05  4.03E-04  0.00E+00  0.00E+00  1.48E-05  4.35E-04  4.37E-03  0.92275
    544.   18.382  4.13E-06  1.22E-04  9.83E-06  2.91E-04  0.00E+00  0.00E+00  1.40E-05  4.13E-04  4.40E-03  0.66007
    546.   18.315  4.01E-06  1.20E-04  1.01E-05  3.00E-04  0.00E+00  0.00E+00  1.41E-05  4.20E-04  4.43E-03  0.67615
    548.   18.248  1.65E-06  4.95E-05  1.31E-05  3.93E-04  0.00E+00  0.00E+00  1.47E-05  4.42E-04  4.46E-03  0.87776
    550.   18.182  1.51E-06  4.57E-05  1.32E-05  4.01E-04  0.00E+00  0.00E+00  1.48E-05  4.46E-04  4.49E-03  0.88823
    552.   18.116  1.49E-06  4.55E-05  1.33E-05  4.05E-04  0.00E+00  0.00E+00  1.48E-05  4.50E-04  4.52E-03  0.89004
    554.   18.051  1.59E-06  4.87E-05  1.32E-05  4.04E-04  0.00E+00  0.00E+00  1.48E-05  4.53E-04  4.55E-03  0.88268
    556.   17.986  1.89E-06  5.84E-05  1.28E-05  3.96E-04  0.00E+00  0.00E+00  1.47E-05  4.55E-04  4.58E-03  0.85819
    558.   17.921  2.07E-06  6.44E-05  1.26E-05  3.93E-04  0.00E+00  0.00E+00  1.47E-05  4.57E-04  4.61E-03  0.84407
    560.   17.857  2.03E-06  6.36E-05  1.27E-05  3.98E-04  0.00E+00  0.00E+00  1.47E-05  4.61E-04  4.64E-03  0.84814
    562.   17.794  2.27E-06  7.18E-05  1.24E-05  3.91E-04  0.00E+00  0.00E+00  1.47E-05  4.63E-04  4.67E-03  0.82844
    564.   17.730  2.80E-06  8.91E-05  1.18E-05  3.74E-04  0.00E+00  0.00E+00  1.46E-05  4.63E-04  4.70E-03  0.78553
    566.   17.668  3.16E-06  1.01E-04  1.13E-05  3.63E-04  0.00E+00  0.00E+00  1.45E-05  4.64E-04  4.72E-03  0.75665
    568.   17.606  3.62E-06  1.17E-04  1.07E-05  3.47E-04  0.00E+00  0.00E+00  1.44E-05  4.64E-04  4.75E-03  0.71787
    570.   17.544  4.26E-06  1.38E-04  9.91E-06  3.22E-04  0.00E+00  0.00E+00  1.42E-05  4.61E-04  4.78E-03  0.66195
    572.   17.483  4.75E-06  1.56E-04  9.26E-06  3.03E-04  0.00E+00  0.00E+00  1.40E-05  4.58E-04  4.81E-03  0.61797
    574.   17.422  5.69E-06  1.87E-04  8.03E-06  2.65E-04  0.00E+00  0.00E+00  1.37E-05  4.52E-04  4.84E-03  0.53594
    576.   17.361  6.53E-06  2.17E-04  6.74E-06  2.24E-04  0.00E+00  0.00E+00  1.33E-05  4.40E-04  4.86E-03  0.45000
    578.   17.301  7.06E-06  2.36E-04  5.78E-06  1.93E-04  0.00E+00  0.00E+00  1.28E-05  4.29E-04  4.89E-03  0.38577
    580.   17.241  7.60E-06  2.56E-04  4.98E-06  1.68E-04  0.00E+00  0.00E+00  1.26E-05  4.23E-04  4.91E-03  0.33254
    582.   17.182  8.79E-06  2.98E-04  3.13E-06  1.06E-04  0.00E+00  0.00E+00  1.19E-05  4.04E-04  4.94E-03  0.20895
    584.   17.123  8.35E-06  2.85E-04  3.27E-06  1.12E-04  0.00E+00  0.00E+00  1.16E-05  3.96E-04  4.96E-03  0.21826
    586.   17.065  8.55E-06  2.94E-04  2.21E-06  7.59E-05  0.00E+00  0.00E+00  1.08E-05  3.70E-04  4.98E-03  0.14750
    588.   17.007  8.70E-06  3.01E-04  2.33E-06  8.07E-05  0.00E+00  0.00E+00  1.10E-05  3.82E-04  5.01E-03  0.15559
    590.   16.949  8.47E-06  2.95E-04  1.63E-06  5.68E-05  0.00E+00  0.00E+00  1.01E-05  3.52E-04  5.03E-03  0.10884
    592.   16.892  8.75E-06  3.07E-04  1.51E-06  5.28E-05  0.00E+00  0.00E+00  1.03E-05  3.59E-04  5.05E-03  0.10057
    594.   16.835  8.38E-06  2.96E-04  4.50E-07  1.59E-05  0.00E+00  0.00E+00  8.83E-06  3.12E-04  5.06E-03  0.03001
    596.   16.779  7.62E-06  2.71E-04  6.92E-08  2.46E-06  0.00E+00  0.00E+00  7.69E-06  2.73E-04  5.08E-03  0.00462
    598.   16.722  7.59E-06  2.71E-04  1.56E-07  5.59E-06  0.00E+00  0.00E+00  7.74E-06  2.77E-04  5.09E-03  0.01042
    600.   16.667  8.54E-06  3.07E-04  3.77E-07  1.36E-05  0.00E+00  0.00E+00  8.92E-06  3.21E-04  5.11E-03  0.02518
  iv          605
1                                             RADIANCE(WATTS/CM2-STER-XXX)
0  FREQ   WAVLEN    PATH THERMAL      SURFACE EMISSION    SURFACE REFLECTED     TOTAL RADIANCE   INTEGRAL    TOTAL
  (CM-1) (MICRN)    (CM-1)   (MICRN)    (CM-1)   (MICRN)    (CM-1)   (MICRN)    (CM-1)   (MICRN)    (CM-1)   TRANS

    602.   16.611  7.83E-06  2.84E-04  3.37E-07  1.22E-05  0.00E+00  0.00E+00  8.17E-06  2.96E-04  5.13E-03  0.02246
    604.   16.556  7.97E-06  2.91E-04  1.10E-07  4.02E-06  0.00E+00  0.00E+00  8.08E-06  2.95E-04  5.14E-03  0.00735
    606.   16.502  7.01E-06  2.57E-04  6.52E-08  2.40E-06  0.00E+00  0.00E+00  7.07E-06  2.60E-04  5.16E-03  0.00435
    608.   16.447  6.96E-06  2.57E-04  5.94E-08  2.20E-06  0.00E+00  0.00E+00  7.02E-06  2.60E-04  5.17E-03  0.00397
    610.   16.393  7.46E-06  2.78E-04  5.68E-08  2.11E-06  0.00E+00  0.00E+00  7.52E-06  2.80E-04  5.19E-03  0.00380
    612.   16.340  7.64E-06  2.86E-04  1.22E-07  4.57E-06  0.00E+00  0.00E+00  7.76E-06  2.91E-04  5.20E-03  0.00815
    614.   16.287  6.77E-06  2.55E-04  2.65E-08  1.00E-06  0.00E+00  0.00E+00  6.80E-06  2.56E-04  5.22E-03  0.00177
    616.   16.234  5.21E-06  1.98E-04  3.14E-10  1.19E-08  0.00E+00  0.00E+00  5.22E-06  1.98E-04  5.23E-03  0.00002
    618.   16.181  4.18E-06  1.60E-04  2.00E-13  7.62E-12  0.00E+00  0.00E+00  4.18E-06  1.60E-04  5.24E-03  0.00000
    620.   16.129  6.64E-06  2.55E-04  9.31E-09  3.58E-07  0.00E+00  0.00E+00  6.65E-06  2.56E-04  5.25E-03  0.00062
    622.   16.077  6.25E-06  2.42E-04  8.13E-09  3.14E-07  0.00E+00  0.00E+00  6.26E-06  2.42E-04  5.26E-03  0.00054
    624.   16.026  5.53E-06  2.15E-04  4.04E-09  1.57E-07  0.00E+00  0.00E+00  5.53E-06  2.15E-04  5.27E-03  0.00027
    626.   15.974  5.41E-06  2.12E-04  4.80E-10  1.88E-08  0.00E+00  0.00E+00  5.41E-06  2.12E-04  5.28E-03  0.00003
    628.   15.924  4.68E-06  1.85E-04  1.22E-11  4.79E-10  0.00E+00  0.00E+00  4.68E-06  1.85E-04  5.29E-03  0.00000
    630.   15.873  4.48E-06  1.78E-04  5.40E-12  2.14E-10  0.00E+00  0.00E+00  4.48E-06  1.78E-04  5.30E-03  0.00000
    632.   15.823  4.26E-06  1.70E-04  2.86E-13  1.14E-11  0.00E+00  0.00E+00  4.26E-06  1.70E-04  5.31E-03  0.00000
    634.   15.773  4.02E-06  1.62E-04  2.09E-15  8.40E-14  0.00E+00  0.00E+00  4.02E-06  1.62E-04  5.32E-03  0.00000
    636.   15.723  3.79E-06  1.53E-04  6.53E-17  2.64E-15  0.00E+00  0.00E+00  3.79E-06  1.53E-04  5.33E-03  0.00000
    638.   15.674  3.59E-06  1.46E-04  8.42E-19  3.43E-17  0.00E+00  0.00E+00  3.59E-06  1.46E-04  5.33E-03  0.00000
    640.   15.625  3.50E-06  1.43E-04  2.52E-21  1.03E-19  0.00E+00  0.00E+00  3.50E-06  1.43E-04  5.34E-03  0.00000
    642.   15.576  3.38E-06  1.39E-04  3.80E-22  1.57E-20  0.00E+00  0.00E+00  3.38E-06  1.39E-04  5.35E-03  0.00000
    644.   15.528  3.33E-06  1.38E-04  1.56E-25  6.48E-24  0.00E+00  0.00E+00  3.33E-06  1.38E-04  5.35E-03  0.00000
    646.   15.480  3.31E-06  1.38E-04  1.99E-29  8.29E-28  0.00E+00  0.00E+00  3.31E-06  1.38E-04  5.36E-03  0.00000
    648.   15.432  3.32E-06  1.39E-04  1.62E-34  6.79E-33  0.00E+00  0.00E+00  3.32E-06  1.39E-04  5.37E-03  0.00000
    650.   15.385  3.34E-06  1.41E-04  5.61E-45  2.37E-43  0.00E+00  0.00E+00  3.34E-06  1.41E-04  5.37E-03  0.00000
    652.   15.337  3.28E-06  1.40E-04  1.00E-35  4.26E-34  0.00E+00  0.00E+00  3.28E-06  1.40E-04  5.38E-03  0.00000
    654.   15.291  3.25E-06  1.39E-04  4.37E-30  1.87E-28  0.00E+00  0.00E+00  3.25E-06  1.39E-04  5.39E-03  0.00000
    656.   15.244  3.22E-06  1.39E-04  4.37E-30  1.88E-28  0.00E+00  0.00E+00  3.22E-06  1.39E-04  5.39E-03  0.00000
    658.   15.198  3.25E-06  1.41E-04  2.71E-36  1.17E-34  0.00E+00  0.00E+00  3.25E-06  1.41E-04  5.40E-03  0.00000
    660.   15.152  3.23E-06  1.40E-04  7.56E-36  3.29E-34  0.00E+00  0.00E+00  3.23E-06  1.40E-04  5.41E-03  0.00000
    662.   15.106  3.25E-06  1.42E-04  1.49E-36  6.53E-35  0.00E+00  0.00E+00  3.25E-06  1.42E-04  5.41E-03  0.00000
    664.   15.060  3.24E-06  1.43E-04  0.00E+00  0.00E+00  0.00E+00  0.00E+00  3.24E-06  1.43E-04  5.42E-03  0.00000
    666.   15.015  3.26E-06  1.45E-04  0.00E+00  0.00E+00  0.00E+00  0.00E+00  3.26E-06  1.45E-04  5.43E-03  0.00000
    668.   14.970  3.37E-06  1.51E-04  0.00E+00  0.00E+00  0.00E+00  0.00E+00  3.37E-06  1.51E-04  5.43E-03  0.00000
    670.   14.925  3.26E-06  1.46E-04  0.00E+00  0.00E+00  0.00E+00  0.00E+00  3.26E-06  1.46E-04  5.44E-03  0.00000
    672.   14.881  3.14E-06  1.42E-04  0.00E+00  0.00E+00  0.00E+00  0.00E+00  3.14E-06  1.42E-04  5.44E-03  0.00000
    674.   14.837  3.12E-06  1.42E-04  6.95E-43  3.16E-41  0.00E+00  0.00E+00  3.12E-06  1.42E-04  5.45E-03  0.00000
    676.   14.793  3.09E-06  1.41E-04  1.77E-35  8.09E-34  0.00E+00  0.00E+00  3.09E-06  1.41E-04  5.46E-03  0.00000
    678.   14.749  3.11E-06  1.43E-04  1.40E-45  6.45E-44  0.00E+00  0.00E+00  3.11E-06  1.43E-04  5.46E-03  0.00000
    680.   14.706  3.06E-06  1.41E-04  1.11E-43  5.12E-42  0.00E+00  0.00E+00  3.06E-06  1.41E-04  5.47E-03  0.00000
    682.   14.663  3.05E-06  1.42E-04  1.12E-43  5.21E-42  0.00E+00  0.00E+00  3.05E-06  1.42E-04  5.48E-03  0.00000
    684.   14.620  2.98E-06  1.40E-04  6.92E-33  3.24E-31  0.00E+00  0.00E+00  2.98E-06  1.40E-04  5.48E-03  0.00000
    686.   14.577  2.97E-06  1.40E-04  8.61E-34  4.05E-32  0.00E+00  0.00E+00  2.97E-06  1.40E-04  5.49E-03  0.00000
    688.   14.535  2.92E-06  1.38E-04  1.27E-35  6.01E-34  0.00E+00  0.00E+00  2.92E-06  1.38E-04  5.49E-03  0.00000
    690.   14.493  2.93E-06  1.40E-04  2.15E-33  1.02E-31  0.00E+00  0.00E+00  2.93E-06  1.40E-04  5.50E-03  0.00000
    692.   14.451  2.95E-06  1.41E-04  6.93E-23  3.32E-21  0.00E+00  0.00E+00  2.95E-06  1.41E-04  5.51E-03  0.00000
    694.   14.409  3.00E-06  1.44E-04  1.61E-21  7.78E-20  0.00E+00  0.00E+00  3.00E-06  1.44E-04  5.51E-03  0.00000
    696.   14.368  3.00E-06  1.45E-04  2.06E-20  9.96E-19  0.00E+00  0.00E+00  3.00E-06  1.45E-04  5.52E-03  0.00000
    698.   14.327  3.21E-06  1.56E-04  2.85E-19  1.39E-17  0.00E+00  0.00E+00  3.21E-06  1.56E-04  5.52E-03  0.00000
    700.   14.286  3.47E-06  1.70E-04  3.94E-15  1.93E-13  0.00E+00  0.00E+00  3.47E-06  1.70E-04  5.53E-03  0.00000
  iv          705
1                                             RADIANCE(WATTS/CM2-STER-XXX)
0  FREQ   WAVLEN    PATH THERMAL      SURFACE EMISSION    SURFACE REFLECTED     TOTAL RADIANCE   INTEGRAL    TOTAL
  (CM-1) (MICRN)    (CM-1)   (MICRN)    (CM-1)   (MICRN)    (CM-1)   (MICRN)    (CM-1)   (MICRN)    (CM-1)   TRANS

    702.   14.245  3.39E-06  1.67E-04  1.08E-16  5.34E-15  0.00E+00  0.00E+00  3.39E-06  1.67E-04  5.54E-03  0.00000
    704.   14.205  3.81E-06  1.89E-04  8.70E-14  4.31E-12  0.00E+00  0.00E+00  3.81E-06  1.89E-04  5.55E-03  0.00000
    706.   14.164  4.33E-06  2.16E-04  2.72E-12  1.36E-10  0.00E+00  0.00E+00  4.33E-06  2.16E-04  5.55E-03  0.00000
    708.   14.124  4.41E-06  2.21E-04  6.44E-12  3.23E-10  0.00E+00  0.00E+00  4.41E-06  2.21E-04  5.56E-03  0.00000
    710.   14.085  4.64E-06  2.34E-04  1.35E-10  6.80E-09  0.00E+00  0.00E+00  4.64E-06  2.34E-04  5.57E-03  0.00001
    712.   14.045  5.04E-06  2.56E-04  1.13E-09  5.73E-08  0.00E+00  0.00E+00  5.04E-06  2.56E-04  5.58E-03  0.00008
    714.   14.006  5.32E-06  2.71E-04  3.21E-09  1.63E-07  0.00E+00  0.00E+00  5.32E-06  2.71E-04  5.59E-03  0.00023
    716.   13.966  5.72E-06  2.93E-04  4.01E-09  2.06E-07  0.00E+00  0.00E+00  5.72E-06  2.93E-04  5.60E-03  0.00028
    718.   13.928  4.62E-06  2.38E-04  1.02E-09  5.26E-08  0.00E+00  0.00E+00  4.62E-06  2.38E-04  5.61E-03  0.00007
    720.   13.889  3.01E-06  1.56E-04  3.26E-18  1.69E-16  0.00E+00  0.00E+00  3.01E-06  1.56E-04  5.62E-03  0.00000
    722.   13.850  5.35E-06  2.79E-04  1.70E-08  8.87E-07  0.00E+00  0.00E+00  5.37E-06  2.80E-04  5.63E-03  0.00120
    724.   13.812  6.47E-06  3.39E-04  7.54E-08  3.95E-06  0.00E+00  0.00E+00  6.54E-06  3.43E-04  5.64E-03  0.00533
    726.   13.774  7.20E-06  3.80E-04  3.36E-07  1.77E-05  0.00E+00  0.00E+00  7.54E-06  3.97E-04  5.66E-03  0.02380
    728.   13.736  6.84E-06  3.63E-04  1.15E-07  6.09E-06  0.00E+00  0.00E+00  6.96E-06  3.69E-04  5.67E-03  0.00815
    730.   13.699  6.18E-06  3.29E-04  1.01E-07  5.41E-06  0.00E+00  0.00E+00  6.28E-06  3.35E-04  5.68E-03  0.00721
    732.   13.661  6.01E-06  3.22E-04  6.68E-08  3.58E-06  0.00E+00  0.00E+00  6.08E-06  3.26E-04  5.70E-03  0.00476
    734.   13.624  6.63E-06  3.57E-04  6.58E-08  3.54E-06  0.00E+00  0.00E+00  6.70E-06  3.61E-04  5.71E-03  0.00469
    736.   13.587  6.24E-06  3.38E-04  8.23E-08  4.46E-06  0.00E+00  0.00E+00  6.32E-06  3.42E-04  5.72E-03  0.00588
    738.   13.550  6.09E-06  3.32E-04  4.86E-08  2.65E-06  0.00E+00  0.00E+00  6.14E-06  3.35E-04  5.74E-03  0.00348
    740.   13.514  6.26E-06  3.43E-04  2.46E-08  1.35E-06  0.00E+00  0.00E+00  6.28E-06  3.44E-04  5.75E-03  0.00177
    742.   13.477  5.54E-06  3.05E-04  1.38E-07  7.62E-06  0.00E+00  0.00E+00  5.68E-06  3.13E-04  5.76E-03  0.00995
    744.   13.441  7.25E-06  4.01E-04  6.04E-07  3.34E-05  0.00E+00  0.00E+00  7.85E-06  4.35E-04  5.77E-03  0.04344
    746.   13.405  7.80E-06  4.34E-04  1.00E-06  5.57E-05  0.00E+00  0.00E+00  8.80E-06  4.90E-04  5.79E-03  0.07218
    748.   13.369  7.32E-06  4.10E-04  1.29E-06  7.24E-05  0.00E+00  0.00E+00  8.61E-06  4.82E-04  5.81E-03  0.09349
    750.   13.333  7.40E-06  4.16E-04  1.40E-06  7.88E-05  0.00E+00  0.00E+00  8.80E-06  4.95E-04  5.83E-03  0.10133
    752.   13.298  7.44E-06  4.21E-04  2.48E-06  1.40E-04  0.00E+00  0.00E+00  9.91E-06  5.61E-04  5.85E-03  0.17945
    754.   13.263  7.30E-06  4.15E-04  2.29E-06  1.30E-04  0.00E+00  0.00E+00  9.58E-06  5.45E-04  5.87E-03  0.16601
    756.   13.228  7.53E-06  4.30E-04  2.18E-06  1.25E-04  0.00E+00  0.00E+00  9.72E-06  5.55E-04  5.89E-03  0.15875
    758.   13.193  6.63E-06  3.81E-04  4.23E-06  2.43E-04  0.00E+00  0.00E+00  1.09E-05  6.24E-04  5.91E-03  0.30813
    760.   13.158  5.94E-06  3.43E-04  5.30E-06  3.06E-04  0.00E+00  0.00E+00  1.12E-05  6.49E-04  5.93E-03  0.38688
    762.   13.123  5.60E-06  3.25E-04  6.04E-06  3.51E-04  0.00E+00  0.00E+00  1.16E-05  6.76E-04  5.95E-03  0.44194
    764.   13.089  4.29E-06  2.50E-04  8.07E-06  4.71E-04  0.00E+00  0.00E+00  1.24E-05  7.21E-04  5.98E-03  0.59200
    766.   13.055  4.58E-06  2.69E-04  7.64E-06  4.48E-04  0.00E+00  0.00E+00  1.22E-05  7.17E-04  6.00E-03  0.56135
    768.   13.021  4.03E-06  2.38E-04  8.48E-06  5.00E-04  0.00E+00  0.00E+00  1.25E-05  7.38E-04  6.03E-03  0.62404
    770.   12.987  3.62E-06  2.14E-04  9.06E-06  5.37E-04  0.00E+00  0.00E+00  1.27E-05  7.52E-04  6.05E-03  0.66827
    772.   12.953  3.05E-06  1.82E-04  9.78E-06  5.83E-04  0.00E+00  0.00E+00  1.28E-05  7.65E-04  6.08E-03  0.72338
    774.   12.920  2.82E-06  1.69E-04  1.00E-05  6.02E-04  0.00E+00  0.00E+00  1.29E-05  7.70E-04  6.10E-03  0.74390
    776.   12.887  2.47E-06  1.49E-04  1.05E-05  6.30E-04  0.00E+00  0.00E+00  1.29E-05  7.79E-04  6.13E-03  0.77664
    778.   12.853  2.02E-06  1.22E-04  1.10E-05  6.67E-04  0.00E+00  0.00E+00  1.30E-05  7.90E-04  6.16E-03  0.82013
    780.   12.821  1.91E-06  1.16E-04  1.11E-05  6.77E-04  0.00E+00  0.00E+00  1.30E-05  7.94E-04  6.18E-03  0.82976
    782.   12.788  1.94E-06  1.19E-04  1.10E-05  6.75E-04  0.00E+00  0.00E+00  1.30E-05  7.94E-04  6.21E-03  0.82497
    784.   12.755  1.71E-06  1.05E-04  1.13E-05  6.95E-04  0.00E+00  0.00E+00  1.30E-05  8.00E-04  6.23E-03  0.84682
    786.   12.723  1.41E-06  8.70E-05  1.17E-05  7.22E-04  0.00E+00  0.00E+00  1.31E-05  8.09E-04  6.26E-03  0.87706
    788.   12.690  1.32E-06  8.20E-05  1.18E-05  7.31E-04  0.00E+00  0.00E+00  1.31E-05  8.13E-04  6.29E-03  0.88511
    790.   12.658  2.07E-06  1.29E-04  1.07E-05  6.69E-04  0.00E+00  0.00E+00  1.28E-05  7.98E-04  6.31E-03  0.80769
    792.   12.626  5.74E-06  3.60E-04  4.66E-06  2.92E-04  0.00E+00  0.00E+00  1.04E-05  6.52E-04  6.33E-03  0.35193
    794.   12.594  2.30E-06  1.45E-04  1.04E-05  6.56E-04  0.00E+00  0.00E+00  1.27E-05  8.01E-04  6.36E-03  0.78793
    796.   12.563  1.38E-06  8.77E-05  1.16E-05  7.32E-04  0.00E+00  0.00E+00  1.29E-05  8.20E-04  6.38E-03  0.87701
    798.   12.531  1.61E-06  1.03E-04  1.12E-05  7.13E-04  0.00E+00  0.00E+00  1.28E-05  8.16E-04  6.41E-03  0.85144
    800.   12.500  1.47E-06  9.38E-05  1.14E-05  7.28E-04  0.00E+00  0.00E+00  1.28E-05  8.21E-04  6.44E-03  0.86673
  iv          805
1                                             RADIANCE(WATTS/CM2-STER-XXX)
0  FREQ   WAVLEN    PATH THERMAL      SURFACE EMISSION    SURFACE REFLECTED     TOTAL RADIANCE   INTEGRAL    TOTAL
  (CM-1) (MICRN)    (CM-1)   (MICRN)    (CM-1)   (MICRN)    (CM-1)   (MICRN)    (CM-1)   (MICRN)    (CM-1)   TRANS

    802.   12.469  1.76E-06  1.13E-04  1.09E-05  7.03E-04  0.00E+00  0.00E+00  1.27E-05  8.16E-04  6.46E-03  0.83527
    804.   12.438  1.53E-06  9.90E-05  1.12E-05  7.26E-04  0.00E+00  0.00E+00  1.28E-05  8.25E-04  6.49E-03  0.85966
    806.   12.407  1.74E-06  1.13E-04  1.09E-05  7.08E-04  0.00E+00  0.00E+00  1.26E-05  8.21E-04  6.51E-03  0.83705
    808.   12.376  1.67E-06  1.09E-04  1.10E-05  7.17E-04  0.00E+00  0.00E+00  1.26E-05  8.25E-04  6.54E-03  0.84455
    810.   12.346  1.40E-06  9.18E-05  1.13E-05  7.43E-04  0.00E+00  0.00E+00  1.27E-05  8.35E-04  6.56E-03  0.87327
    812.   12.315  1.50E-06  9.91E-05  1.11E-05  7.35E-04  0.00E+00  0.00E+00  1.27E-05  8.34E-04  6.59E-03  0.86197
    814.   12.285  1.26E-06  8.35E-05  1.15E-05  7.59E-04  0.00E+00  0.00E+00  1.27E-05  8.42E-04  6.61E-03  0.88770
    816.   12.255  1.33E-06  8.84E-05  1.13E-05  7.55E-04  0.00E+00  0.00E+00  1.27E-05  8.43E-04  6.64E-03  0.88079
    818.   12.225  1.13E-06  7.53E-05  1.16E-05  7.75E-04  0.00E+00  0.00E+00  1.27E-05  8.50E-04  6.66E-03  0.90157
    820.   12.195  1.15E-06  7.74E-05  1.15E-05  7.74E-04  0.00E+00  0.00E+00  1.27E-05  8.51E-04  6.69E-03  0.89878
    822.   12.165  1.05E-06  7.10E-05  1.16E-05  7.85E-04  0.00E+00  0.00E+00  1.27E-05  8.56E-04  6.71E-03  0.90908
    824.   12.136  9.48E-07  6.44E-05  1.17E-05  7.95E-04  0.00E+00  0.00E+00  1.27E-05  8.60E-04  6.74E-03  0.91933
    826.   12.107  9.13E-07  6.23E-05  1.17E-05  8.00E-04  0.00E+00  0.00E+00  1.26E-05  8.63E-04  6.76E-03  0.92266
    828.   12.077  1.16E-06  7.97E-05  1.14E-05  7.80E-04  0.00E+00  0.00E+00  1.25E-05  8.60E-04  6.79E-03  0.89768
    830.   12.048  9.53E-07  6.56E-05  1.16E-05  8.00E-04  0.00E+00  0.00E+00  1.26E-05  8.66E-04  6.82E-03  0.91854
    832.   12.019  8.68E-07  6.01E-05  1.17E-05  8.09E-04  0.00E+00  0.00E+00  1.26E-05  8.69E-04  6.84E-03  0.92665
    834.   11.990  8.65E-07  6.02E-05  1.17E-05  8.11E-04  0.00E+00  0.00E+00  1.25E-05  8.71E-04  6.87E-03  0.92678
    836.   11.962  8.55E-07  5.97E-05  1.16E-05  8.14E-04  0.00E+00  0.00E+00  1.25E-05  8.73E-04  6.89E-03  0.92760
    838.   11.933  8.58E-07  6.02E-05  1.16E-05  8.15E-04  0.00E+00  0.00E+00  1.25E-05  8.75E-04  6.92E-03  0.92708
    840.   11.905  8.49E-07  5.99E-05  1.16E-05  8.17E-04  0.00E+00  0.00E+00  1.24E-05  8.77E-04  6.94E-03  0.92781
    842.   11.876  8.50E-07  6.03E-05  1.15E-05  8.19E-04  0.00E+00  0.00E+00  1.24E-05  8.79E-04  6.96E-03  0.92747
    844.   11.848  8.50E-07  6.06E-05  1.15E-05  8.20E-04  0.00E+00  0.00E+00  1.24E-05  8.81E-04  6.99E-03  0.92730
    846.   11.820  8.50E-07  6.08E-05  1.15E-05  8.22E-04  0.00E+00  0.00E+00  1.23E-05  8.83E-04  7.01E-03  0.92712
    848.   11.792  8.46E-07  6.08E-05  1.15E-05  8.24E-04  0.00E+00  0.00E+00  1.23E-05  8.85E-04  7.04E-03  0.92732
    850.   11.765  8.43E-07  6.09E-05  1.14E-05  8.25E-04  0.00E+00  0.00E+00  1.23E-05  8.86E-04  7.06E-03  0.92741
    852.   11.737  8.43E-07  6.12E-05  1.14E-05  8.27E-04  0.00E+00  0.00E+00  1.22E-05  8.88E-04  7.09E-03  0.92721
    854.   11.710  8.40E-07  6.13E-05  1.14E-05  8.29E-04  0.00E+00  0.00E+00  1.22E-05  8.90E-04  7.11E-03  0.92736
    856.   11.682  8.43E-07  6.18E-05  1.13E-05  8.30E-04  0.00E+00  0.00E+00  1.22E-05  8.92E-04  7.14E-03  0.92686
    858.   11.655  8.41E-07  6.19E-05  1.13E-05  8.31E-04  0.00E+00  0.00E+00  1.21E-05  8.93E-04  7.16E-03  0.92683
    860.   11.628  8.36E-07  6.18E-05  1.13E-05  8.33E-04  0.00E+00  0.00E+00  1.21E-05  8.95E-04  7.19E-03  0.92717
    862.   11.601  8.41E-07  6.25E-05  1.12E-05  8.34E-04  0.00E+00  0.00E+00  1.21E-05  8.97E-04  7.21E-03  0.92644
    864.   11.574  9.01E-07  6.73E-05  1.11E-05  8.30E-04  0.00E+00  0.00E+00  1.20E-05  8.97E-04  7.23E-03  0.91990
    866.   11.547  8.43E-07  6.32E-05  1.12E-05  8.37E-04  0.00E+00  0.00E+00  1.20E-05  9.00E-04  7.26E-03  0.92577
    868.   11.521  8.35E-07  6.29E-05  1.11E-05  8.39E-04  0.00E+00  0.00E+00  1.20E-05  9.02E-04  7.28E-03  0.92645
    870.   11.494  8.35E-07  6.32E-05  1.11E-05  8.40E-04  0.00E+00  0.00E+00  1.19E-05  9.03E-04  7.31E-03  0.92623
    872.   11.468  8.37E-07  6.37E-05  1.11E-05  8.41E-04  0.00E+00  0.00E+00  1.19E-05  9.05E-04  7.33E-03  0.92575
    874.   11.442  8.39E-07  6.41E-05  1.10E-05  8.42E-04  0.00E+00  0.00E+00  1.19E-05  9.06E-04  7.35E-03  0.92540
    876.   11.416  8.41E-07  6.45E-05  1.10E-05  8.43E-04  0.00E+00  0.00E+00  1.18E-05  9.08E-04  7.38E-03  0.92496
    878.   11.390  8.41E-07  6.48E-05  1.10E-05  8.44E-04  0.00E+00  0.00E+00  1.18E-05  9.09E-04  7.40E-03  0.92467
    880.   11.364  8.44E-07  6.54E-05  1.09E-05  8.45E-04  0.00E+00  0.00E+00  1.18E-05  9.10E-04  7.42E-03  0.92415
    882.   11.338  8.46E-07  6.58E-05  1.09E-05  8.46E-04  0.00E+00  0.00E+00  1.17E-05  9.12E-04  7.45E-03  0.92375
    884.   11.312  8.47E-07  6.62E-05  1.08E-05  8.47E-04  0.00E+00  0.00E+00  1.17E-05  9.13E-04  7.47E-03  0.92340
    886.   11.287  8.51E-07  6.68E-05  1.08E-05  8.48E-04  0.00E+00  0.00E+00  1.17E-05  9.15E-04  7.49E-03  0.92276
    888.   11.261  8.52E-07  6.72E-05  1.08E-05  8.49E-04  0.00E+00  0.00E+00  1.16E-05  9.16E-04  7.52E-03  0.92239
    890.   11.236  8.58E-07  6.79E-05  1.07E-05  8.49E-04  0.00E+00  0.00E+00  1.16E-05  9.17E-04  7.54E-03  0.92151
    892.   11.211  8.64E-07  6.88E-05  1.07E-05  8.50E-04  0.00E+00  0.00E+00  1.15E-05  9.18E-04  7.56E-03  0.92050
    894.   11.186  8.66E-07  6.92E-05  1.06E-05  8.51E-04  0.00E+00  0.00E+00  1.15E-05  9.20E-04  7.59E-03  0.92011
    896.   11.161  8.75E-07  7.02E-05  1.06E-05  8.51E-04  0.00E+00  0.00E+00  1.15E-05  9.21E-04  7.61E-03  0.91886
    898.   11.136  8.77E-07  7.07E-05  1.06E-05  8.51E-04  0.00E+00  0.00E+00  1.14E-05  9.22E-04  7.63E-03  0.91840
    900.   11.111  8.88E-07  7.19E-05  1.05E-05  8.51E-04  0.00E+00  0.00E+00  1.14E-05  9.23E-04  7.65E-03  0.91684
  iv          905
1                                             RADIANCE(WATTS/CM2-STER-XXX)
0  FREQ   WAVLEN    PATH THERMAL      SURFACE EMISSION    SURFACE REFLECTED     TOTAL RADIANCE   INTEGRAL    TOTAL
  (CM-1) (MICRN)    (CM-1)   (MICRN)    (CM-1)   (MICRN)    (CM-1)   (MICRN)    (CM-1)   (MICRN)    (CM-1)   TRANS

    902.   11.086  8.90E-07  7.24E-05  1.05E-05  8.52E-04  0.00E+00  0.00E+00  1.14E-05  9.24E-04  7.68E-03  0.91639
    904.   11.062  8.99E-07  7.35E-05  1.04E-05  8.52E-04  0.00E+00  0.00E+00  1.13E-05  9.25E-04  7.70E-03  0.91501
    906.   11.038  9.03E-07  7.41E-05  1.04E-05  8.52E-04  0.00E+00  0.00E+00  1.13E-05  9.26E-04  7.72E-03  0.91439
    908.   11.013  9.19E-07  7.58E-05  1.03E-05  8.51E-04  0.00E+00  0.00E+00  1.12E-05  9.27E-04  7.75E-03  0.91230
    910.   10.989  9.31E-07  7.71E-05  1.03E-05  8.51E-04  0.00E+00  0.00E+00  1.12E-05  9.28E-04  7.77E-03  0.91069
    912.   10.965  9.25E-07  7.70E-05  1.02E-05  8.52E-04  0.00E+00  0.00E+00  1.12E-05  9.29E-04  7.79E-03  0.91110
    914.   10.941  9.37E-07  7.82E-05  1.02E-05  8.52E-04  0.00E+00  0.00E+00  1.11E-05  9.30E-04  7.81E-03  0.90955
    916.   10.917  9.44E-07  7.92E-05  1.02E-05  8.52E-04  0.00E+00  0.00E+00  1.11E-05  9.31E-04  7.83E-03  0.90835
    918.   10.893  9.70E-07  8.17E-05  1.01E-05  8.50E-04  0.00E+00  0.00E+00  1.11E-05  9.32E-04  7.86E-03  0.90500
    920.   10.870  9.80E-07  8.30E-05  1.00E-05  8.49E-04  0.00E+00  0.00E+00  1.10E-05  9.32E-04  7.88E-03  0.90344
    922.   10.846  1.01E-06  8.60E-05  9.96E-06  8.47E-04  0.00E+00  0.00E+00  1.10E-05  9.32E-04  7.90E-03  0.89939
    924.   10.823  1.01E-06  8.65E-05  9.92E-06  8.47E-04  0.00E+00  0.00E+00  1.09E-05  9.33E-04  7.92E-03  0.89882
    926.   10.799  1.05E-06  8.98E-05  9.84E-06  8.43E-04  0.00E+00  0.00E+00  1.09E-05  9.33E-04  7.94E-03  0.89417
    928.   10.776  1.08E-06  9.32E-05  9.75E-06  8.40E-04  0.00E+00  0.00E+00  1.08E-05  9.33E-04  7.97E-03  0.88961
    930.   10.753  1.14E-06  9.90E-05  9.63E-06  8.33E-04  0.00E+00  0.00E+00  1.08E-05  9.32E-04  7.99E-03  0.88135
    932.   10.730  1.22E-06  1.06E-04  9.50E-06  8.25E-04  0.00E+00  0.00E+00  1.07E-05  9.31E-04  8.01E-03  0.87167
    934.   10.707  1.27E-06  1.11E-04  9.39E-06  8.19E-04  0.00E+00  0.00E+00  1.07E-05  9.30E-04  8.03E-03  0.86440
    936.   10.684  1.34E-06  1.17E-04  9.26E-06  8.11E-04  0.00E+00  0.00E+00  1.06E-05  9.28E-04  8.05E-03  0.85546
    938.   10.661  1.39E-06  1.22E-04  9.14E-06  8.04E-04  0.00E+00  0.00E+00  1.05E-05  9.27E-04  8.07E-03  0.84741
    940.   10.638  1.42E-06  1.26E-04  9.06E-06  8.00E-04  0.00E+00  0.00E+00  1.05E-05  9.26E-04  8.09E-03  0.84227
    942.   10.616  1.70E-06  1.51E-04  8.62E-06  7.64E-04  0.00E+00  0.00E+00  1.03E-05  9.15E-04  8.11E-03  0.80408
    944.   10.593  1.48E-06  1.32E-04  8.88E-06  7.92E-04  0.00E+00  0.00E+00  1.04E-05  9.24E-04  8.13E-03  0.83170
    946.   10.571  1.51E-06  1.35E-04  8.80E-06  7.88E-04  0.00E+00  0.00E+00  1.03E-05  9.23E-04  8.16E-03  0.82689
    948.   10.549  1.76E-06  1.58E-04  8.40E-06  7.55E-04  0.00E+00  0.00E+00  1.02E-05  9.13E-04  8.18E-03  0.79169
    950.   10.526  1.49E-06  1.34E-04  8.76E-06  7.90E-04  0.00E+00  0.00E+00  1.02E-05  9.25E-04  8.20E-03  0.82832
    952.   10.504  1.47E-06  1.33E-04  8.75E-06  7.93E-04  0.00E+00  0.00E+00  1.02E-05  9.26E-04  8.22E-03  0.83007
    954.   10.482  1.39E-06  1.26E-04  8.83E-06  8.04E-04  0.00E+00  0.00E+00  1.02E-05  9.30E-04  8.24E-03  0.84079
    956.   10.460  1.47E-06  1.35E-04  8.66E-06  7.92E-04  0.00E+00  0.00E+00  1.01E-05  9.26E-04  8.26E-03  0.82767
    958.   10.438  1.24E-06  1.14E-04  8.97E-06  8.23E-04  0.00E+00  0.00E+00  1.02E-05  9.37E-04  8.28E-03  0.86038
    960.   10.417  9.66E-07  8.90E-05  9.33E-06  8.60E-04  0.00E+00  0.00E+00  1.03E-05  9.49E-04  8.30E-03  0.89784
    962.   10.395  1.06E-06  9.77E-05  9.16E-06  8.48E-04  0.00E+00  0.00E+00  1.02E-05  9.46E-04  8.32E-03  0.88472
    964.   10.373  1.17E-06  1.09E-04  8.97E-06  8.33E-04  0.00E+00  0.00E+00  1.01E-05  9.42E-04  8.34E-03  0.86861
    966.   10.352  1.43E-06  1.33E-04  8.54E-06  7.97E-04  0.00E+00  0.00E+00  9.97E-06  9.30E-04  8.36E-03  0.83071
    968.   10.331  1.57E-06  1.47E-04  8.29E-06  7.76E-04  0.00E+00  0.00E+00  9.86E-06  9.24E-04  8.38E-03  0.80831
    970.   10.309  1.46E-06  1.38E-04  8.42E-06  7.93E-04  0.00E+00  0.00E+00  9.89E-06  9.30E-04  8.40E-03  0.82483
    972.   10.288  1.87E-06  1.77E-04  7.76E-06  7.33E-04  0.00E+00  0.00E+00  9.63E-06  9.10E-04  8.42E-03  0.76265
    974.   10.267  1.48E-06  1.40E-04  8.34E-06  7.91E-04  0.00E+00  0.00E+00  9.81E-06  9.31E-04  8.44E-03  0.82192
    976.   10.246  1.82E-06  1.73E-04  7.79E-06  7.42E-04  0.00E+00  0.00E+00  9.61E-06  9.15E-04  8.46E-03  0.77088
    978.   10.225  1.57E-06  1.50E-04  8.14E-06  7.78E-04  0.00E+00  0.00E+00  9.71E-06  9.29E-04  8.48E-03  0.80800
    980.   10.204  1.47E-06  1.42E-04  8.25E-06  7.93E-04  0.00E+00  0.00E+00  9.73E-06  9.34E-04  8.50E-03  0.82239
    982.   10.183  1.47E-06  1.42E-04  8.22E-06  7.93E-04  0.00E+00  0.00E+00  9.70E-06  9.35E-04  8.51E-03  0.82225
    984.   10.163  1.34E-06  1.29E-04  8.39E-06  8.13E-04  0.00E+00  0.00E+00  9.73E-06  9.42E-04  8.53E-03  0.84260
    986.   10.142  1.07E-06  1.04E-04  8.74E-06  8.49E-04  0.00E+00  0.00E+00  9.80E-06  9.53E-04  8.55E-03  0.88000
    988.   10.121  1.11E-06  1.08E-04  8.65E-06  8.44E-04  0.00E+00  0.00E+00  9.75E-06  9.52E-04  8.57E-03  0.87403
    990.   10.101  1.01E-06  9.90E-05  8.74E-06  8.57E-04  0.00E+00  0.00E+00  9.75E-06  9.56E-04  8.59E-03  0.88697
    992.   10.081  9.65E-07  9.50E-05  8.77E-06  8.63E-04  0.00E+00  0.00E+00  9.73E-06  9.58E-04  8.61E-03  0.89273
    994.   10.060  9.00E-07  8.89E-05  8.82E-06  8.71E-04  0.00E+00  0.00E+00  9.72E-06  9.60E-04  8.63E-03  0.90108
    996.   10.040  8.87E-07  8.79E-05  8.80E-06  8.73E-04  0.00E+00  0.00E+00  9.68E-06  9.61E-04  8.65E-03  0.90242
    998.   10.020  8.80E-07  8.77E-05  8.77E-06  8.73E-04  0.00E+00  0.00E+00  9.65E-06  9.61E-04  8.67E-03  0.90289
   1000.   10.000  8.77E-07  8.77E-05  8.74E-06  8.74E-04  0.00E+00  0.00E+00  9.61E-06  9.61E-04  8.69E-03  0.90291
  iv         1005
1                                             RADIANCE(WATTS/CM2-STER-XXX)
0  FREQ   WAVLEN    PATH THERMAL      SURFACE EMISSION    SURFACE REFLECTED     TOTAL RADIANCE   INTEGRAL    TOTAL
  (CM-1) (MICRN)    (CM-1)   (MICRN)    (CM-1)   (MICRN)    (CM-1)   (MICRN)    (CM-1)   (MICRN)    (CM-1)   TRANS

   1002.    9.980  8.85E-07  8.89E-05  8.69E-06  8.73E-04  0.00E+00  0.00E+00  9.58E-06  9.62E-04  8.71E-03  0.90144
   1004.    9.960  8.89E-07  8.97E-05  8.65E-06  8.72E-04  0.00E+00  0.00E+00  9.54E-06  9.62E-04  8.73E-03  0.90063
   1006.    9.940  8.93E-07  9.04E-05  8.61E-06  8.72E-04  0.00E+00  0.00E+00  9.51E-06  9.62E-04  8.75E-03  0.89985
   1008.    9.921  9.03E-07  9.18E-05  8.56E-06  8.70E-04  0.00E+00  0.00E+00  9.47E-06  9.62E-04  8.77E-03  0.89818
   1010.    9.901  9.14E-07  9.32E-05  8.52E-06  8.69E-04  0.00E+00  0.00E+00  9.43E-06  9.62E-04  8.78E-03  0.89638
   1012.    9.881  9.22E-07  9.44E-05  8.47E-06  8.68E-04  0.00E+00  0.00E+00  9.39E-06  9.62E-04  8.80E-03  0.89503
   1014.    9.862  9.22E-07  9.48E-05  8.44E-06  8.67E-04  0.00E+00  0.00E+00  9.36E-06  9.62E-04  8.82E-03  0.89463
   1016.    9.843  9.44E-07  9.74E-05  8.37E-06  8.64E-04  0.00E+00  0.00E+00  9.32E-06  9.62E-04  8.84E-03  0.89138
   1018.    9.823  9.61E-07  9.96E-05  8.32E-06  8.62E-04  0.00E+00  0.00E+00  9.28E-06  9.61E-04  8.86E-03  0.88857
   1020.    9.804  9.82E-07  1.02E-04  8.25E-06  8.59E-04  0.00E+00  0.00E+00  9.23E-06  9.61E-04  8.88E-03  0.88514
   1022.    9.785  1.01E-06  1.06E-04  8.18E-06  8.54E-04  0.00E+00  0.00E+00  9.19E-06  9.60E-04  8.90E-03  0.88037
   1024.    9.766  1.05E-06  1.10E-04  8.09E-06  8.49E-04  0.00E+00  0.00E+00  9.14E-06  9.58E-04  8.91E-03  0.87480
   1026.    9.747  1.09E-06  1.14E-04  8.00E-06  8.43E-04  0.00E+00  0.00E+00  9.09E-06  9.57E-04  8.93E-03  0.86849
   1028.    9.728  1.13E-06  1.19E-04  7.91E-06  8.36E-04  0.00E+00  0.00E+00  9.04E-06  9.55E-04  8.95E-03  0.86157
   1030.    9.709  1.18E-06  1.25E-04  7.80E-06  8.27E-04  0.00E+00  0.00E+00  8.98E-06  9.53E-04  8.97E-03  0.85277
   1032.    9.690  1.23E-06  1.31E-04  7.69E-06  8.19E-04  0.00E+00  0.00E+00  8.92E-06  9.50E-04  8.99E-03  0.84439
   1034.    9.671  1.28E-06  1.37E-04  7.58E-06  8.11E-04  0.00E+00  0.00E+00  8.86E-06  9.47E-04  9.00E-03  0.83548
   1036.    9.653  1.34E-06  1.44E-04  7.46E-06  8.00E-04  0.00E+00  0.00E+00  8.80E-06  9.44E-04  9.02E-03  0.82483
   1038.    9.634  1.39E-06  1.50E-04  7.34E-06  7.90E-04  0.00E+00  0.00E+00  8.73E-06  9.41E-04  9.04E-03  0.81462
   1040.    9.615  1.44E-06  1.56E-04  7.23E-06  7.82E-04  0.00E+00  0.00E+00  8.67E-06  9.37E-04  9.06E-03  0.80554
   1042.    9.597  1.49E-06  1.61E-04  7.12E-06  7.73E-04  0.00E+00  0.00E+00  8.60E-06  9.34E-04  9.07E-03  0.79638
   1044.    9.579  1.52E-06  1.66E-04  7.02E-06  7.65E-04  0.00E+00  0.00E+00  8.54E-06  9.31E-04  9.09E-03  0.78867
   1046.    9.560  1.61E-06  1.76E-04  6.86E-06  7.50E-04  0.00E+00  0.00E+00  8.47E-06  9.26E-04  9.11E-03  0.77360
   1048.    9.542  1.62E-06  1.77E-04  6.80E-06  7.47E-04  0.00E+00  0.00E+00  8.42E-06  9.24E-04  9.12E-03  0.77019
   1050.    9.524  1.86E-06  2.05E-04  6.37E-06  7.02E-04  0.00E+00  0.00E+00  8.23E-06  9.07E-04  9.14E-03  0.72424
   1052.    9.506  1.65E-06  1.83E-04  6.67E-06  7.38E-04  0.00E+00  0.00E+00  8.32E-06  9.21E-04  9.16E-03  0.76156
   1054.    9.488  1.63E-06  1.81E-04  6.66E-06  7.40E-04  0.00E+00  0.00E+00  8.30E-06  9.22E-04  9.17E-03  0.76361
   1056.    9.470  1.80E-06  2.01E-04  6.35E-06  7.09E-04  0.00E+00  0.00E+00  8.15E-06  9.09E-04  9.19E-03  0.73098
   1058.    9.452  1.55E-06  1.73E-04  6.74E-06  7.55E-04  0.00E+00  0.00E+00  8.29E-06  9.28E-04  9.21E-03  0.77859
   1060.    9.434  1.42E-06  1.60E-04  6.89E-06  7.74E-04  0.00E+00  0.00E+00  8.32E-06  9.34E-04  9.22E-03  0.79911
   1062.    9.416  1.38E-06  1.56E-04  6.93E-06  7.82E-04  0.00E+00  0.00E+00  8.31E-06  9.37E-04  9.24E-03  0.80681
   1064.    9.398  1.13E-06  1.28E-04  7.29E-06  8.25E-04  0.00E+00  0.00E+00  8.42E-06  9.53E-04  9.26E-03  0.85166
   1066.    9.381  1.34E-06  1.52E-04  6.92E-06  7.87E-04  0.00E+00  0.00E+00  8.26E-06  9.39E-04  9.27E-03  0.81262
   1068.    9.363  1.61E-06  1.84E-04  6.45E-06  7.36E-04  0.00E+00  0.00E+00  8.06E-06  9.19E-04  9.29E-03  0.76021
   1070.    9.346  1.75E-06  2.01E-04  6.18E-06  7.08E-04  0.00E+00  0.00E+00  7.93E-06  9.08E-04  9.31E-03  0.73156
   1072.    9.328  1.80E-06  2.06E-04  6.06E-06  6.96E-04  0.00E+00  0.00E+00  7.85E-06  9.03E-04  9.32E-03  0.71960
   1074.    9.311  1.68E-06  1.94E-04  6.24E-06  7.20E-04  0.00E+00  0.00E+00  7.92E-06  9.14E-04  9.34E-03  0.74475
   1076.    9.294  2.09E-06  2.42E-04  5.51E-06  6.38E-04  0.00E+00  0.00E+00  7.60E-06  8.80E-04  9.35E-03  0.65994
   1078.    9.276  1.71E-06  1.99E-04  6.14E-06  7.14E-04  0.00E+00  0.00E+00  7.85E-06  9.13E-04  9.37E-03  0.73864
   1080.    9.259  2.06E-06  2.40E-04  5.54E-06  6.46E-04  0.00E+00  0.00E+00  7.60E-06  8.86E-04  9.38E-03  0.66928
   1082.    9.242  1.98E-06  2.31E-04  5.68E-06  6.64E-04  0.00E+00  0.00E+00  7.65E-06  8.96E-04  9.40E-03  0.68822
   1084.    9.225  1.55E-06  1.82E-04  6.33E-06  7.44E-04  0.00E+00  0.00E+00  7.88E-06  9.26E-04  9.41E-03  0.77042
   1086.    9.208  1.75E-06  2.06E-04  6.00E-06  7.07E-04  0.00E+00  0.00E+00  7.75E-06  9.14E-04  9.43E-03  0.73319
   1088.    9.191  1.54E-06  1.82E-04  6.29E-06  7.45E-04  0.00E+00  0.00E+00  7.83E-06  9.27E-04  9.45E-03  0.77239
   1090.    9.174  1.39E-06  1.65E-04  6.48E-06  7.70E-04  0.00E+00  0.00E+00  7.87E-06  9.35E-04  9.46E-03  0.79889
   1092.    9.158  1.26E-06  1.50E-04  6.63E-06  7.91E-04  0.00E+00  0.00E+00  7.89E-06  9.41E-04  9.48E-03  0.82119
   1094.    9.141  1.14E-06  1.36E-04  6.77E-06  8.10E-04  0.00E+00  0.00E+00  7.91E-06  9.47E-04  9.49E-03  0.84177
   1096.    9.124  1.07E-06  1.29E-04  6.83E-06  8.20E-04  0.00E+00  0.00E+00  7.90E-06  9.49E-04  9.51E-03  0.85233
   1098.    9.107  1.03E-06  1.24E-04  6.85E-06  8.26E-04  0.00E+00  0.00E+00  7.88E-06  9.50E-04  9.52E-03  0.85891
   1100.    9.091  9.95E-07  1.20E-04  6.86E-06  8.30E-04  0.00E+00  0.00E+00  7.86E-06  9.51E-04  9.54E-03  0.86366
  iv         1105
1                                             RADIANCE(WATTS/CM2-STER-XXX)
0  FREQ   WAVLEN    PATH THERMAL      SURFACE EMISSION    SURFACE REFLECTED     TOTAL RADIANCE   INTEGRAL    TOTAL
  (CM-1) (MICRN)    (CM-1)   (MICRN)    (CM-1)   (MICRN)    (CM-1)   (MICRN)    (CM-1)   (MICRN)    (CM-1)   TRANS

   1102.    9.074  9.74E-07  1.18E-04  6.85E-06  8.32E-04  0.00E+00  0.00E+00  7.83E-06  9.51E-04  9.56E-03  0.86637
   1104.    9.058  9.62E-07  1.17E-04  6.84E-06  8.33E-04  0.00E+00  0.00E+00  7.80E-06  9.50E-04  9.57E-03  0.86763
   1106.    9.042  9.53E-07  1.17E-04  6.81E-06  8.33E-04  0.00E+00  0.00E+00  7.77E-06  9.50E-04  9.59E-03  0.86840
   1108.    9.025  9.47E-07  1.16E-04  6.79E-06  8.33E-04  0.00E+00  0.00E+00  7.73E-06  9.49E-04  9.60E-03  0.86876
   1110.    9.009  9.41E-07  1.16E-04  6.76E-06  8.33E-04  0.00E+00  0.00E+00  7.70E-06  9.49E-04  9.62E-03  0.86900
   1112.    8.993  9.35E-07  1.16E-04  6.73E-06  8.33E-04  0.00E+00  0.00E+00  7.67E-06  9.48E-04  9.63E-03  0.86923
   1114.    8.977  9.30E-07  1.15E-04  6.71E-06  8.32E-04  0.00E+00  0.00E+00  7.64E-06  9.48E-04  9.65E-03  0.86946
   1116.    8.961  9.24E-07  1.15E-04  6.68E-06  8.32E-04  0.00E+00  0.00E+00  7.60E-06  9.47E-04  9.66E-03  0.86970
   1118.    8.945  9.18E-07  1.15E-04  6.65E-06  8.32E-04  0.00E+00  0.00E+00  7.57E-06  9.46E-04  9.68E-03  0.86994
   1120.    8.929  9.12E-07  1.14E-04  6.63E-06  8.31E-04  0.00E+00  0.00E+00  7.54E-06  9.46E-04  9.69E-03  0.87018
   1122.    8.913  9.06E-07  1.14E-04  6.60E-06  8.31E-04  0.00E+00  0.00E+00  7.51E-06  9.45E-04  9.71E-03  0.87042
   1124.    8.897  9.01E-07  1.14E-04  6.57E-06  8.30E-04  0.00E+00  0.00E+00  7.47E-06  9.44E-04  9.72E-03  0.87066
   1126.    8.881  8.95E-07  1.13E-04  6.55E-06  8.30E-04  0.00E+00  0.00E+00  7.44E-06  9.43E-04  9.74E-03  0.87090
   1128.    8.865  8.89E-07  1.13E-04  6.52E-06  8.30E-04  0.00E+00  0.00E+00  7.41E-06  9.43E-04  9.75E-03  0.87114
   1130.    8.850  8.84E-07  1.13E-04  6.49E-06  8.29E-04  0.00E+00  0.00E+00  7.38E-06  9.42E-04  9.77E-03  0.87138
   1132.    8.834  8.78E-07  1.12E-04  6.47E-06  8.29E-04  0.00E+00  0.00E+00  7.35E-06  9.41E-04  9.78E-03  0.87161
   1134.    8.818  8.72E-07  1.12E-04  6.44E-06  8.28E-04  0.00E+00  0.00E+00  7.31E-06  9.40E-04  9.80E-03  0.87185
   1136.    8.803  8.67E-07  1.12E-04  6.41E-06  8.28E-04  0.00E+00  0.00E+00  7.28E-06  9.40E-04  9.81E-03  0.87208
   1138.    8.787  8.61E-07  1.12E-04  6.39E-06  8.27E-04  0.00E+00  0.00E+00  7.25E-06  9.39E-04  9.83E-03  0.87231
   1140.    8.772  8.56E-07  1.11E-04  6.36E-06  8.27E-04  0.00E+00  0.00E+00  7.22E-06  9.38E-04  9.84E-03  0.87255
   1142.    8.757  8.50E-07  1.11E-04  6.34E-06  8.26E-04  0.00E+00  0.00E+00  7.19E-06  9.37E-04  9.86E-03  0.87278
   1144.    8.741  8.45E-07  1.11E-04  6.31E-06  8.26E-04  0.00E+00  0.00E+00  7.15E-06  9.36E-04  9.87E-03  0.87301
   1146.    8.726  8.39E-07  1.10E-04  6.28E-06  8.25E-04  0.00E+00  0.00E+00  7.12E-06  9.36E-04  9.88E-03  0.87336
   1148.    8.711  8.32E-07  1.10E-04  6.26E-06  8.25E-04  0.00E+00  0.00E+00  7.09E-06  9.35E-04  9.90E-03  0.87382
   1150.    8.696  8.23E-07  1.09E-04  6.24E-06  8.25E-04  0.00E+00  0.00E+00  7.06E-06  9.34E-04  9.91E-03  0.87450
   1152.    8.681  8.06E-07  1.07E-04  6.22E-06  8.26E-04  0.00E+00  0.00E+00  7.03E-06  9.33E-04  9.93E-03  0.87652
   1154.    8.666  7.88E-07  1.05E-04  6.21E-06  8.27E-04  0.00E+00  0.00E+00  7.00E-06  9.32E-04  9.94E-03  0.87876
   1156.    8.651  7.70E-07  1.03E-04  6.20E-06  8.29E-04  0.00E+00  0.00E+00  6.97E-06  9.32E-04  9.95E-03  0.88099
   1158.    8.636  7.52E-07  1.01E-04  6.19E-06  8.30E-04  0.00E+00  0.00E+00  6.94E-06  9.31E-04  9.97E-03  0.88323
   1160.    8.621  7.34E-07  9.87E-05  6.18E-06  8.31E-04  0.00E+00  0.00E+00  6.91E-06  9.30E-04  9.98E-03  0.88546
   1162.    8.606  7.16E-07  9.67E-05  6.17E-06  8.32E-04  0.00E+00  0.00E+00  6.88E-06  9.29E-04  1.00E-02  0.88769
   1164.    8.591  6.98E-07  9.46E-05  6.15E-06  8.34E-04  0.00E+00  0.00E+00  6.85E-06  9.28E-04  1.00E-02  0.88992
   1166.    8.576  6.81E-07  9.26E-05  6.14E-06  8.35E-04  0.00E+00  0.00E+00  6.82E-06  9.27E-04  1.00E-02  0.89214
   1168.    8.562  6.64E-07  9.05E-05  6.13E-06  8.36E-04  0.00E+00  0.00E+00  6.79E-06  9.27E-04  1.00E-02  0.89436
   1170.    8.547  6.47E-07  8.85E-05  6.12E-06  8.37E-04  0.00E+00  0.00E+00  6.76E-06  9.26E-04  1.01E-02  0.89659
   1172.    8.532  6.30E-07  8.65E-05  6.10E-06  8.38E-04  0.00E+00  0.00E+00  6.73E-06  9.25E-04  1.01E-02  0.89880
   1174.    8.518  6.13E-07  8.44E-05  6.09E-06  8.40E-04  0.00E+00  0.00E+00  6.70E-06  9.24E-04  1.01E-02  0.90102
   1176.    8.503  5.96E-07  8.24E-05  6.08E-06  8.41E-04  0.00E+00  0.00E+00  6.67E-06  9.23E-04  1.01E-02  0.90324
   1178.    8.489  5.79E-07  8.04E-05  6.07E-06  8.42E-04  0.00E+00  0.00E+00  6.65E-06  9.22E-04  1.01E-02  0.90545
   1180.    8.475  5.63E-07  7.84E-05  6.05E-06  8.43E-04  0.00E+00  0.00E+00  6.62E-06  9.21E-04  1.01E-02  0.90766
   1182.    8.460  5.47E-07  7.64E-05  6.04E-06  8.44E-04  0.00E+00  0.00E+00  6.59E-06  9.20E-04  1.01E-02  0.90987
   1184.    8.446  5.31E-07  7.44E-05  6.03E-06  8.45E-04  0.00E+00  0.00E+00  6.56E-06  9.19E-04  1.01E-02  0.91207
   1186.    8.432  5.15E-07  7.24E-05  6.01E-06  8.46E-04  0.00E+00  0.00E+00  6.53E-06  9.18E-04  1.02E-02  0.91428
   1188.    8.418  4.99E-07  7.04E-05  6.00E-06  8.47E-04  0.00E+00  0.00E+00  6.50E-06  9.17E-04  1.02E-02  0.91648
   1190.    8.403  4.83E-07  6.85E-05  5.99E-06  8.48E-04  0.00E+00  0.00E+00  6.47E-06  9.16E-04  1.02E-02  0.91868
   1192.    8.389  4.68E-07  6.65E-05  5.97E-06  8.49E-04  0.00E+00  0.00E+00  6.44E-06  9.15E-04  1.02E-02  0.92088
   1194.    8.375  4.53E-07  6.45E-05  5.96E-06  8.50E-04  0.00E+00  0.00E+00  6.41E-06  9.14E-04  1.02E-02  0.92308
   1196.    8.361  4.37E-07  6.25E-05  5.95E-06  8.51E-04  0.00E+00  0.00E+00  6.39E-06  9.13E-04  1.02E-02  0.92527
   1198.    8.347  4.22E-07  6.06E-05  5.93E-06  8.52E-04  0.00E+00  0.00E+00  6.36E-06  9.12E-04  1.02E-02  0.92746
   1200.    8.333  4.07E-07  5.86E-05  5.92E-06  8.53E-04  0.00E+00  0.00E+00  6.33E-06  9.11E-04  1.02E-02  0.92965
  iv         1205
1                                             RADIANCE(WATTS/CM2-STER-XXX)
0  FREQ   WAVLEN    PATH THERMAL      SURFACE EMISSION    SURFACE REFLECTED     TOTAL RADIANCE   INTEGRAL    TOTAL
  (CM-1) (MICRN)    (CM-1)   (MICRN)    (CM-1)   (MICRN)    (CM-1)   (MICRN)    (CM-1)   (MICRN)    (CM-1)   TRANS

   1202.    8.319  3.92E-07  5.67E-05  5.91E-06  8.54E-04  0.00E+00  0.00E+00  6.30E-06  9.10E-04  1.03E-02  0.93184
   1204.    8.306  3.78E-07  5.48E-05  5.89E-06  8.54E-04  0.00E+00  0.00E+00  6.27E-06  9.09E-04  1.03E-02  0.93402
   1206.    8.292  3.63E-07  5.28E-05  5.88E-06  8.55E-04  0.00E+00  0.00E+00  6.24E-06  9.08E-04  1.03E-02  0.93621
   1208.    8.278  3.49E-07  5.09E-05  5.87E-06  8.56E-04  0.00E+00  0.00E+00  6.22E-06  9.07E-04  1.03E-02  0.93838
   1210.    8.264  3.35E-07  4.91E-05  5.85E-06  8.57E-04  0.00E+00  0.00E+00  6.19E-06  9.06E-04  1.03E-02  0.94046
   1212.    8.251  3.21E-07  4.72E-05  5.84E-06  8.58E-04  0.00E+00  0.00E+00  6.16E-06  9.05E-04  1.03E-02  0.94254
   1214.    8.237  3.08E-07  4.54E-05  5.82E-06  8.58E-04  0.00E+00  0.00E+00  6.13E-06  9.04E-04  1.03E-02  0.94460
   1216.    8.224  2.95E-07  4.37E-05  5.81E-06  8.59E-04  0.00E+00  0.00E+00  6.10E-06  9.02E-04  1.03E-02  0.94649
   1218.    8.210  2.83E-07  4.20E-05  5.79E-06  8.59E-04  0.00E+00  0.00E+00  6.08E-06  9.01E-04  1.04E-02  0.94832
   1220.    8.197  2.73E-07  4.07E-05  5.77E-06  8.59E-04  0.00E+00  0.00E+00  6.05E-06  9.00E-04  1.04E-02  0.94979
   1222.    8.183  2.72E-07  4.06E-05  5.75E-06  8.58E-04  0.00E+00  0.00E+00  6.02E-06  8.99E-04  1.04E-02  0.94966
   1224.    8.170  2.71E-07  4.06E-05  5.72E-06  8.57E-04  0.00E+00  0.00E+00  5.99E-06  8.97E-04  1.04E-02  0.94947
   1226.    8.157  2.71E-07  4.08E-05  5.69E-06  8.55E-04  0.00E+00  0.00E+00  5.96E-06  8.96E-04  1.04E-02  0.94909
   1228.    8.143  2.73E-07  4.12E-05  5.65E-06  8.53E-04  0.00E+00  0.00E+00  5.93E-06  8.94E-04  1.04E-02  0.94804
   1230.    8.130  2.74E-07  4.14E-05  5.63E-06  8.51E-04  0.00E+00  0.00E+00  5.90E-06  8.92E-04  1.04E-02  0.94753
   1232.    8.117  2.75E-07  4.18E-05  5.59E-06  8.49E-04  0.00E+00  0.00E+00  5.87E-06  8.91E-04  1.04E-02  0.94660
   1234.    8.104  2.80E-07  4.26E-05  5.55E-06  8.46E-04  0.00E+00  0.00E+00  5.83E-06  8.88E-04  1.05E-02  0.94465
   1236.    8.091  2.80E-07  4.28E-05  5.52E-06  8.44E-04  0.00E+00  0.00E+00  5.80E-06  8.87E-04  1.05E-02  0.94397
   1238.    8.078  2.86E-07  4.39E-05  5.48E-06  8.40E-04  0.00E+00  0.00E+00  5.77E-06  8.84E-04  1.05E-02  0.94116
   1240.    8.065  2.86E-07  4.39E-05  5.45E-06  8.39E-04  0.00E+00  0.00E+00  5.74E-06  8.82E-04  1.05E-02  0.94082
   1242.    8.052  2.95E-07  4.55E-05  5.40E-06  8.34E-04  0.00E+00  0.00E+00  5.70E-06  8.79E-04  1.05E-02  0.93663
   1244.    8.039  2.93E-07  4.53E-05  5.38E-06  8.32E-04  0.00E+00  0.00E+00  5.67E-06  8.78E-04  1.05E-02  0.93674
   1246.    8.026  2.94E-07  4.57E-05  5.35E-06  8.30E-04  0.00E+00  0.00E+00  5.64E-06  8.76E-04  1.05E-02  0.93557
   1248.    8.013  3.00E-07  4.67E-05  5.30E-06  8.26E-04  0.00E+00  0.00E+00  5.60E-06  8.72E-04  1.05E-02  0.93236
   1250.    8.000  2.91E-07  4.55E-05  5.29E-06  8.27E-04  0.00E+00  0.00E+00  5.58E-06  8.72E-04  1.05E-02  0.93508
   1252.    7.987  2.87E-07  4.50E-05  5.27E-06  8.26E-04  0.00E+00  0.00E+00  5.56E-06  8.71E-04  1.06E-02  0.93621
   1254.    7.974  2.84E-07  4.46E-05  5.25E-06  8.26E-04  0.00E+00  0.00E+00  5.53E-06  8.70E-04  1.06E-02  0.93680
   1256.    7.962  2.73E-07  4.30E-05  5.25E-06  8.28E-04  0.00E+00  0.00E+00  5.52E-06  8.71E-04  1.06E-02  0.94078
   1258.    7.949  2.57E-07  4.07E-05  5.25E-06  8.32E-04  0.00E+00  0.00E+00  5.51E-06  8.72E-04  1.06E-02  0.94667
   1260.    7.937  2.53E-07  4.02E-05  5.24E-06  8.31E-04  0.00E+00  0.00E+00  5.49E-06  8.71E-04  1.06E-02  0.94780
   1262.    7.924  2.64E-07  4.20E-05  5.18E-06  8.25E-04  0.00E+00  0.00E+00  5.45E-06  8.67E-04  1.06E-02  0.94280
   1264.    7.911  2.69E-07  4.30E-05  5.14E-06  8.22E-04  0.00E+00  0.00E+00  5.41E-06  8.65E-04  1.06E-02  0.94003
   1266.    7.899  2.75E-07  4.40E-05  5.10E-06  8.18E-04  0.00E+00  0.00E+00  5.38E-06  8.62E-04  1.06E-02  0.93740
   1268.    7.886  2.87E-07  4.61E-05  5.05E-06  8.12E-04  0.00E+00  0.00E+00  5.34E-06  8.58E-04  1.06E-02  0.93219
   1270.    7.874  2.90E-07  4.68E-05  5.02E-06  8.09E-04  0.00E+00  0.00E+00  5.31E-06  8.56E-04  1.07E-02  0.93082
   1272.    7.862  2.85E-07  4.61E-05  5.01E-06  8.10E-04  0.00E+00  0.00E+00  5.29E-06  8.56E-04  1.07E-02  0.93338
   1274.    7.849  2.86E-07  4.64E-05  4.98E-06  8.09E-04  0.00E+00  0.00E+00  5.27E-06  8.55E-04  1.07E-02  0.93328
   1276.    7.837  2.90E-07  4.73E-05  4.95E-06  8.06E-04  0.00E+00  0.00E+00  5.24E-06  8.53E-04  1.07E-02  0.93157
   1278.    7.825  2.83E-07  4.63E-05  4.94E-06  8.07E-04  0.00E+00  0.00E+00  5.22E-06  8.53E-04  1.07E-02  0.93480
   1280.    7.813  2.85E-07  4.67E-05  4.91E-06  8.05E-04  0.00E+00  0.00E+00  5.20E-06  8.52E-04  1.07E-02  0.93437
   1282.    7.800  2.78E-07  4.57E-05  4.91E-06  8.06E-04  0.00E+00  0.00E+00  5.18E-06  8.52E-04  1.07E-02  0.93735
   1284.    7.788  2.78E-07  4.58E-05  4.88E-06  8.05E-04  0.00E+00  0.00E+00  5.16E-06  8.51E-04  1.07E-02  0.93743
   1286.    7.776  2.73E-07  4.51E-05  4.87E-06  8.05E-04  0.00E+00  0.00E+00  5.14E-06  8.50E-04  1.07E-02  0.93965
   1288.    7.764  2.72E-07  4.52E-05  4.85E-06  8.04E-04  0.00E+00  0.00E+00  5.12E-06  8.49E-04  1.07E-02  0.93975
   1290.    7.752  2.70E-07  4.49E-05  4.83E-06  8.03E-04  0.00E+00  0.00E+00  5.10E-06  8.48E-04  1.08E-02  0.94071
   1292.    7.740  2.69E-07  4.49E-05  4.80E-06  8.02E-04  0.00E+00  0.00E+00  5.07E-06  8.47E-04  1.08E-02  0.94095
   1294.    7.728  2.69E-07  4.50E-05  4.78E-06  8.00E-04  0.00E+00  0.00E+00  5.05E-06  8.45E-04  1.08E-02  0.94093
   1296.    7.716  2.68E-07  4.51E-05  4.76E-06  7.99E-04  0.00E+00  0.00E+00  5.03E-06  8.44E-04  1.08E-02  0.94106
   1298.    7.704  2.69E-07  4.53E-05  4.73E-06  7.97E-04  0.00E+00  0.00E+00  5.00E-06  8.42E-04  1.08E-02  0.94073
   1300.    7.692  2.70E-07  4.55E-05  4.71E-06  7.95E-04  0.00E+00  0.00E+00  4.98E-06  8.41E-04  1.08E-02  0.94042
  iv         1305
1                                             RADIANCE(WATTS/CM2-STER-XXX)
0  FREQ   WAVLEN    PATH THERMAL      SURFACE EMISSION    SURFACE REFLECTED     TOTAL RADIANCE   INTEGRAL    TOTAL
  (CM-1) (MICRN)    (CM-1)   (MICRN)    (CM-1)   (MICRN)    (CM-1)   (MICRN)    (CM-1)   (MICRN)    (CM-1)   TRANS

   1302.    7.680  2.70E-07  4.58E-05  4.68E-06  7.94E-04  0.00E+00  0.00E+00  4.95E-06  8.39E-04  1.08E-02  0.94004
   1304.    7.669  2.71E-07  4.61E-05  4.66E-06  7.92E-04  0.00E+00  0.00E+00  4.93E-06  8.38E-04  1.08E-02  0.93959
   1306.    7.657  2.72E-07  4.64E-05  4.63E-06  7.90E-04  0.00E+00  0.00E+00  4.90E-06  8.36E-04  1.08E-02  0.93915
   1308.    7.645  2.73E-07  4.67E-05  4.60E-06  7.88E-04  0.00E+00  0.00E+00  4.88E-06  8.34E-04  1.08E-02  0.93868
   1310.    7.634  2.74E-07  4.70E-05  4.58E-06  7.86E-04  0.00E+00  0.00E+00  4.85E-06  8.33E-04  1.09E-02  0.93812
   1312.    7.622  2.75E-07  4.73E-05  4.55E-06  7.84E-04  0.00E+00  0.00E+00  4.83E-06  8.31E-04  1.09E-02  0.93757
   1314.    7.610  2.76E-07  4.77E-05  4.53E-06  7.82E-04  0.00E+00  0.00E+00  4.80E-06  8.29E-04  1.09E-02  0.93701
   1316.    7.599  2.77E-07  4.80E-05  4.50E-06  7.80E-04  0.00E+00  0.00E+00  4.78E-06  8.28E-04  1.09E-02  0.93644
   1318.    7.587  2.78E-07  4.83E-05  4.48E-06  7.78E-04  0.00E+00  0.00E+00  4.75E-06  8.26E-04  1.09E-02  0.93581
   1320.    7.576  2.79E-07  4.87E-05  4.45E-06  7.75E-04  0.00E+00  0.00E+00  4.73E-06  8.24E-04  1.09E-02  0.93523
   1322.    7.564  2.80E-07  4.90E-05  4.42E-06  7.73E-04  0.00E+00  0.00E+00  4.71E-06  8.22E-04  1.09E-02  0.93458
   1324.    7.553  2.82E-07  4.94E-05  4.40E-06  7.71E-04  0.00E+00  0.00E+00  4.68E-06  8.21E-04  1.09E-02  0.93393
   1326.    7.541  2.83E-07  4.97E-05  4.37E-06  7.69E-04  0.00E+00  0.00E+00  4.66E-06  8.19E-04  1.09E-02  0.93324
   1328.    7.530  2.84E-07  5.01E-05  4.35E-06  7.67E-04  0.00E+00  0.00E+00  4.63E-06  8.17E-04  1.09E-02  0.93252
   1330.    7.519  2.86E-07  5.06E-05  4.32E-06  7.65E-04  0.00E+00  0.00E+00  4.61E-06  8.15E-04  1.10E-02  0.93165
   1332.    7.508  2.88E-07  5.10E-05  4.30E-06  7.62E-04  0.00E+00  0.00E+00  4.58E-06  8.13E-04  1.10E-02  0.93076
   1334.    7.496  2.89E-07  5.14E-05  4.27E-06  7.60E-04  0.00E+00  0.00E+00  4.56E-06  8.11E-04  1.10E-02  0.92996
   1336.    7.485  2.92E-07  5.21E-05  4.24E-06  7.57E-04  0.00E+00  0.00E+00  4.53E-06  8.09E-04  1.10E-02  0.92833
   1338.    7.474  2.95E-07  5.29E-05  4.21E-06  7.54E-04  0.00E+00  0.00E+00  4.51E-06  8.07E-04  1.10E-02  0.92671
   1340.    7.463  2.97E-07  5.34E-05  4.18E-06  7.51E-04  0.00E+00  0.00E+00  4.48E-06  8.05E-04  1.10E-02  0.92547
   1342.    7.452  3.03E-07  5.46E-05  4.15E-06  7.47E-04  0.00E+00  0.00E+00  4.45E-06  8.02E-04  1.10E-02  0.92244
   1344.    7.440  3.08E-07  5.57E-05  4.12E-06  7.43E-04  0.00E+00  0.00E+00  4.42E-06  7.99E-04  1.10E-02  0.91949
   1346.    7.429  3.10E-07  5.62E-05  4.09E-06  7.41E-04  0.00E+00  0.00E+00  4.40E-06  7.97E-04  1.10E-02  0.91821
   1348.    7.418  3.18E-07  5.78E-05  4.05E-06  7.35E-04  0.00E+00  0.00E+00  4.36E-06  7.93E-04  1.10E-02  0.91342
   1350.    7.407  3.19E-07  5.81E-05  4.02E-06  7.33E-04  0.00E+00  0.00E+00  4.34E-06  7.91E-04  1.10E-02  0.91273
   1352.    7.396  3.26E-07  5.96E-05  3.98E-06  7.28E-04  0.00E+00  0.00E+00  4.31E-06  7.87E-04  1.10E-02  0.90810
   1354.    7.386  3.23E-07  5.91E-05  3.97E-06  7.27E-04  0.00E+00  0.00E+00  4.29E-06  7.86E-04  1.11E-02  0.90935
   1356.    7.375  3.27E-07  6.02E-05  3.93E-06  7.23E-04  0.00E+00  0.00E+00  4.26E-06  7.83E-04  1.11E-02  0.90597
   1358.    7.364  3.21E-07  5.92E-05  3.92E-06  7.24E-04  0.00E+00  0.00E+00  4.25E-06  7.83E-04  1.11E-02  0.90922
   1360.    7.353  3.20E-07  5.93E-05  3.90E-06  7.22E-04  0.00E+00  0.00E+00  4.22E-06  7.81E-04  1.11E-02  0.90890
   1362.    7.342  3.12E-07  5.79E-05  3.90E-06  7.24E-04  0.00E+00  0.00E+00  4.21E-06  7.82E-04  1.11E-02  0.91351
   1364.    7.331  3.06E-07  5.69E-05  3.90E-06  7.25E-04  0.00E+00  0.00E+00  4.20E-06  7.82E-04  1.11E-02  0.91686
   1366.    7.321  3.00E-07  5.60E-05  3.89E-06  7.26E-04  0.00E+00  0.00E+00  4.19E-06  7.82E-04  1.11E-02  0.91991
   1368.    7.310  3.06E-07  5.73E-05  3.85E-06  7.21E-04  0.00E+00  0.00E+00  4.16E-06  7.78E-04  1.11E-02  0.91606
   1370.    7.299  3.16E-07  5.93E-05  3.81E-06  7.14E-04  0.00E+00  0.00E+00  4.12E-06  7.74E-04  1.11E-02  0.90967
   1372.    7.289  3.20E-07  6.03E-05  3.77E-06  7.10E-04  0.00E+00  0.00E+00  4.09E-06  7.71E-04  1.11E-02  0.90687
   1374.    7.278  3.28E-07  6.19E-05  3.73E-06  7.05E-04  0.00E+00  0.00E+00  4.06E-06  7.67E-04  1.11E-02  0.90169
   1376.    7.267  3.26E-07  6.17E-05  3.72E-06  7.04E-04  0.00E+00  0.00E+00  4.04E-06  7.66E-04  1.11E-02  0.90281
   1378.    7.257  3.32E-07  6.30E-05  3.68E-06  6.99E-04  0.00E+00  0.00E+00  4.01E-06  7.62E-04  1.12E-02  0.89907
   1380.    7.246  3.27E-07  6.22E-05  3.68E-06  7.00E-04  0.00E+00  0.00E+00  4.00E-06  7.62E-04  1.12E-02  0.90196
   1382.    7.236  3.25E-07  6.20E-05  3.66E-06  6.99E-04  0.00E+00  0.00E+00  3.98E-06  7.61E-04  1.12E-02  0.90284
   1384.    7.225  3.26E-07  6.24E-05  3.64E-06  6.97E-04  0.00E+00  0.00E+00  3.96E-06  7.59E-04  1.12E-02  0.90193
   1386.    7.215  3.18E-07  6.11E-05  3.64E-06  6.98E-04  0.00E+00  0.00E+00  3.95E-06  7.59E-04  1.12E-02  0.90636
   1388.    7.205  3.15E-07  6.06E-05  3.62E-06  6.98E-04  0.00E+00  0.00E+00  3.94E-06  7.58E-04  1.12E-02  0.90774
   1390.    7.194  3.12E-07  6.02E-05  3.61E-06  6.97E-04  0.00E+00  0.00E+00  3.92E-06  7.57E-04  1.12E-02  0.90911
   1392.    7.184  3.07E-07  5.95E-05  3.60E-06  6.97E-04  0.00E+00  0.00E+00  3.90E-06  7.56E-04  1.12E-02  0.91073
   1394.    7.174  3.05E-07  5.93E-05  3.58E-06  6.95E-04  0.00E+00  0.00E+00  3.88E-06  7.55E-04  1.12E-02  0.91114
   1396.    7.163  2.99E-07  5.83E-05  3.57E-06  6.95E-04  0.00E+00  0.00E+00  3.87E-06  7.54E-04  1.12E-02  0.91337
   1398.    7.153  2.96E-07  5.79E-05  3.55E-06  6.94E-04  0.00E+00  0.00E+00  3.85E-06  7.52E-04  1.12E-02  0.91414
   1400.    7.143  2.94E-07  5.76E-05  3.53E-06  6.93E-04  0.00E+00  0.00E+00  3.83E-06  7.50E-04  1.12E-02  0.91446
  iv         1405
1                                             RADIANCE(WATTS/CM2-STER-XXX)
0  FREQ   WAVLEN    PATH THERMAL      SURFACE EMISSION    SURFACE REFLECTED     TOTAL RADIANCE   INTEGRAL    TOTAL
  (CM-1) (MICRN)    (CM-1)   (MICRN)    (CM-1)   (MICRN)    (CM-1)   (MICRN)    (CM-1)   (MICRN)    (CM-1)   TRANS

   1402.    7.133  2.90E-07  5.70E-05  3.52E-06  6.92E-04  0.00E+00  0.00E+00  3.81E-06  7.49E-04  1.12E-02  0.91568
   1404.    7.123  2.88E-07  5.67E-05  3.50E-06  6.90E-04  0.00E+00  0.00E+00  3.79E-06  7.47E-04  1.13E-02  0.91590
   1406.    7.112  2.85E-07  5.64E-05  3.49E-06  6.89E-04  0.00E+00  0.00E+00  3.77E-06  7.45E-04  1.13E-02  0.91633
   1408.    7.102  2.83E-07  5.61E-05  3.47E-06  6.87E-04  0.00E+00  0.00E+00  3.75E-06  7.43E-04  1.13E-02  0.91652
   1410.    7.092  2.81E-07  5.59E-05  3.45E-06  6.86E-04  0.00E+00  0.00E+00  3.73E-06  7.42E-04  1.13E-02  0.91664
   1412.    7.082  2.80E-07  5.58E-05  3.43E-06  6.84E-04  0.00E+00  0.00E+00  3.71E-06  7.40E-04  1.13E-02  0.91651
   1414.    7.072  2.79E-07  5.57E-05  3.41E-06  6.82E-04  0.00E+00  0.00E+00  3.69E-06  7.38E-04  1.13E-02  0.91639
   1416.    7.062  2.78E-07  5.58E-05  3.39E-06  6.80E-04  0.00E+00  0.00E+00  3.67E-06  7.36E-04  1.13E-02  0.91587
   1418.    7.052  2.78E-07  5.59E-05  3.37E-06  6.78E-04  0.00E+00  0.00E+00  3.65E-06  7.34E-04  1.13E-02  0.91518
   1420.    7.042  2.78E-07  5.61E-05  3.35E-06  6.75E-04  0.00E+00  0.00E+00  3.63E-06  7.31E-04  1.13E-02  0.91429
   1422.    7.032  2.80E-07  5.66E-05  3.33E-06  6.72E-04  0.00E+00  0.00E+00  3.61E-06  7.29E-04  1.13E-02  0.91282
   1424.    7.022  2.82E-07  5.71E-05  3.30E-06  6.69E-04  0.00E+00  0.00E+00  3.58E-06  7.27E-04  1.13E-02  0.91111
   1426.    7.013  2.85E-07  5.81E-05  3.27E-06  6.66E-04  0.00E+00  0.00E+00  3.56E-06  7.24E-04  1.13E-02  0.90851
   1428.    7.003  2.91E-07  5.93E-05  3.24E-06  6.62E-04  0.00E+00  0.00E+00  3.54E-06  7.21E-04  1.13E-02  0.90502
   1430.    6.993  2.97E-07  6.08E-05  3.21E-06  6.57E-04  0.00E+00  0.00E+00  3.51E-06  7.18E-04  1.14E-02  0.90110
   1432.    6.983  3.09E-07  6.34E-05  3.17E-06  6.50E-04  0.00E+00  0.00E+00  3.48E-06  7.14E-04  1.14E-02  0.89453
   1434.    6.974  3.21E-07  6.61E-05  3.13E-06  6.44E-04  0.00E+00  0.00E+00  3.45E-06  7.10E-04  1.14E-02  0.88757
   1436.    6.964  3.30E-07  6.81E-05  3.10E-06  6.38E-04  0.00E+00  0.00E+00  3.43E-06  7.06E-04  1.14E-02  0.88250
   1438.    6.954  3.36E-07  6.94E-05  3.07E-06  6.34E-04  0.00E+00  0.00E+00  3.40E-06  7.04E-04  1.14E-02  0.87927
   1440.    6.944  3.41E-07  7.07E-05  3.04E-06  6.30E-04  0.00E+00  0.00E+00  3.38E-06  7.01E-04  1.14E-02  0.87607
   1442.    6.935  3.45E-07  7.18E-05  3.01E-06  6.26E-04  0.00E+00  0.00E+00  3.36E-06  6.98E-04  1.14E-02  0.87304
   1444.    6.925  3.50E-07  7.30E-05  2.99E-06  6.23E-04  0.00E+00  0.00E+00  3.34E-06  6.96E-04  1.14E-02  0.86999
   1446.    6.916  3.55E-07  7.41E-05  2.96E-06  6.19E-04  0.00E+00  0.00E+00  3.31E-06  6.93E-04  1.14E-02  0.86706
   1448.    6.906  3.59E-07  7.52E-05  2.93E-06  6.15E-04  0.00E+00  0.00E+00  3.29E-06  6.90E-04  1.14E-02  0.86427
   1450.    6.897  3.63E-07  7.63E-05  2.91E-06  6.12E-04  0.00E+00  0.00E+00  3.27E-06  6.88E-04  1.14E-02  0.86143
   1452.    6.887  3.67E-07  7.73E-05  2.88E-06  6.08E-04  0.00E+00  0.00E+00  3.25E-06  6.85E-04  1.14E-02  0.85856
   1454.    6.878  3.71E-07  7.84E-05  2.86E-06  6.04E-04  0.00E+00  0.00E+00  3.23E-06  6.83E-04  1.14E-02  0.85569
   1456.    6.868  3.75E-07  7.95E-05  2.83E-06  6.00E-04  0.00E+00  0.00E+00  3.21E-06  6.80E-04  1.14E-02  0.85244
   1458.    6.859  3.79E-07  8.06E-05  2.80E-06  5.96E-04  0.00E+00  0.00E+00  3.18E-06  6.77E-04  1.14E-02  0.84865
   1460.    6.849  3.83E-07  8.17E-05  2.78E-06  5.92E-04  0.00E+00  0.00E+00  3.16E-06  6.74E-04  1.15E-02  0.84515
   1462.    6.840  3.87E-07  8.28E-05  2.75E-06  5.88E-04  0.00E+00  0.00E+00  3.14E-06  6.70E-04  1.15E-02  0.84137
   1464.    6.831  3.91E-07  8.39E-05  2.72E-06  5.83E-04  0.00E+00  0.00E+00  3.11E-06  6.67E-04  1.15E-02  0.83757
   1466.    6.821  3.95E-07  8.48E-05  2.70E-06  5.79E-04  0.00E+00  0.00E+00  3.09E-06  6.64E-04  1.15E-02  0.83423
   1468.    6.812  3.97E-07  8.56E-05  2.67E-06  5.76E-04  0.00E+00  0.00E+00  3.07E-06  6.61E-04  1.15E-02  0.83133
   1470.    6.803  4.00E-07  8.64E-05  2.65E-06  5.72E-04  0.00E+00  0.00E+00  3.05E-06  6.58E-04  1.15E-02  0.82821
   1472.    6.793  4.03E-07  8.72E-05  2.62E-06  5.69E-04  0.00E+00  0.00E+00  3.03E-06  6.56E-04  1.15E-02  0.82559
   1474.    6.784  4.06E-07  8.81E-05  2.60E-06  5.65E-04  0.00E+00  0.00E+00  3.01E-06  6.53E-04  1.15E-02  0.82275
   1476.    6.775  4.09E-07  8.92E-05  2.58E-06  5.61E-04  0.00E+00  0.00E+00  2.99E-06  6.50E-04  1.15E-02  0.81953
   1478.    6.766  4.14E-07  9.04E-05  2.55E-06  5.57E-04  0.00E+00  0.00E+00  2.96E-06  6.48E-04  1.15E-02  0.81593
   1480.    6.757  4.18E-07  9.15E-05  2.53E-06  5.53E-04  0.00E+00  0.00E+00  2.94E-06  6.45E-04  1.15E-02  0.81256
   1482.    6.748  4.17E-07  9.15E-05  2.50E-06  5.50E-04  0.00E+00  0.00E+00  2.92E-06  6.42E-04  1.15E-02  0.81035
   1484.    6.739  4.14E-07  9.12E-05  2.49E-06  5.48E-04  0.00E+00  0.00E+00  2.90E-06  6.39E-04  1.15E-02  0.80883
   1486.    6.729  4.12E-07  9.10E-05  2.47E-06  5.45E-04  0.00E+00  0.00E+00  2.88E-06  6.36E-04  1.15E-02  0.80726
   1488.    6.720  4.09E-07  9.06E-05  2.45E-06  5.42E-04  0.00E+00  0.00E+00  2.86E-06  6.33E-04  1.15E-02  0.80572
   1490.    6.711  4.08E-07  9.05E-05  2.43E-06  5.40E-04  0.00E+00  0.00E+00  2.84E-06  6.30E-04  1.15E-02  0.80395
   1492.    6.702  4.11E-07  9.14E-05  2.41E-06  5.36E-04  0.00E+00  0.00E+00  2.82E-06  6.27E-04  1.15E-02  0.80080
   1494.    6.693  4.15E-07  9.25E-05  2.38E-06  5.32E-04  0.00E+00  0.00E+00  2.80E-06  6.24E-04  1.16E-02  0.79721
   1496.    6.684  4.18E-07  9.36E-05  2.36E-06  5.28E-04  0.00E+00  0.00E+00  2.78E-06  6.22E-04  1.16E-02  0.79391
   1498.    6.676  4.21E-07  9.45E-05  2.34E-06  5.25E-04  0.00E+00  0.00E+00  2.76E-06  6.19E-04  1.16E-02  0.79086
   1500.    6.667  4.24E-07  9.54E-05  2.32E-06  5.21E-04  0.00E+00  0.00E+00  2.74E-06  6.17E-04  1.16E-02  0.78781
  iv         1505
1                                             RADIANCE(WATTS/CM2-STER-XXX)
0  FREQ   WAVLEN    PATH THERMAL      SURFACE EMISSION    SURFACE REFLECTED     TOTAL RADIANCE   INTEGRAL    TOTAL
  (CM-1) (MICRN)    (CM-1)   (MICRN)    (CM-1)   (MICRN)    (CM-1)   (MICRN)    (CM-1)   (MICRN)    (CM-1)   TRANS

   1502.    6.658  4.25E-07  9.59E-05  2.30E-06  5.18E-04  0.00E+00  0.00E+00  2.72E-06  6.14E-04  1.16E-02  0.78590
   1504.    6.649  4.25E-07  9.62E-05  2.28E-06  5.16E-04  0.00E+00  0.00E+00  2.70E-06  6.12E-04  1.16E-02  0.78417
   1506.    6.640  4.26E-07  9.65E-05  2.26E-06  5.13E-04  0.00E+00  0.00E+00  2.69E-06  6.09E-04  1.16E-02  0.78227
   1508.    6.631  4.26E-07  9.68E-05  2.24E-06  5.10E-04  0.00E+00  0.00E+00  2.67E-06  6.07E-04  1.16E-02  0.78064
   1510.    6.623  4.26E-07  9.71E-05  2.23E-06  5.08E-04  0.00E+00  0.00E+00  2.65E-06  6.05E-04  1.16E-02  0.77885
   1512.    6.614  4.29E-07  9.80E-05  2.20E-06  5.03E-04  0.00E+00  0.00E+00  2.63E-06  6.01E-04  1.16E-02  0.77471
   1514.    6.605  4.31E-07  9.89E-05  2.18E-06  4.99E-04  0.00E+00  0.00E+00  2.61E-06  5.98E-04  1.16E-02  0.77020
   1516.    6.596  4.34E-07  9.98E-05  2.15E-06  4.94E-04  0.00E+00  0.00E+00  2.59E-06  5.94E-04  1.16E-02  0.76550
   1518.    6.588  4.37E-07  1.01E-04  2.12E-06  4.90E-04  0.00E+00  0.00E+00  2.56E-06  5.90E-04  1.16E-02  0.76040
   1520.    6.579  4.40E-07  1.02E-04  2.10E-06  4.85E-04  0.00E+00  0.00E+00  2.54E-06  5.87E-04  1.16E-02  0.75546
   1522.    6.570  4.43E-07  1.03E-04  2.07E-06  4.80E-04  0.00E+00  0.00E+00  2.52E-06  5.83E-04  1.16E-02  0.75032
   1524.    6.562  4.46E-07  1.04E-04  2.05E-06  4.75E-04  0.00E+00  0.00E+00  2.49E-06  5.79E-04  1.16E-02  0.74491
   1526.    6.553  4.50E-07  1.05E-04  2.02E-06  4.70E-04  0.00E+00  0.00E+00  2.47E-06  5.75E-04  1.16E-02  0.73945
   1528.    6.545  4.55E-07  1.06E-04  1.99E-06  4.65E-04  0.00E+00  0.00E+00  2.45E-06  5.72E-04  1.16E-02  0.73394
   1530.    6.536  4.61E-07  1.08E-04  1.97E-06  4.60E-04  0.00E+00  0.00E+00  2.43E-06  5.68E-04  1.16E-02  0.72763
   1532.    6.527  4.71E-07  1.10E-04  1.93E-06  4.53E-04  0.00E+00  0.00E+00  2.40E-06  5.64E-04  1.17E-02  0.71928
   1534.    6.519  4.81E-07  1.13E-04  1.90E-06  4.46E-04  0.00E+00  0.00E+00  2.38E-06  5.59E-04  1.17E-02  0.71014
   1536.    6.510  4.91E-07  1.16E-04  1.86E-06  4.39E-04  0.00E+00  0.00E+00  2.35E-06  5.55E-04  1.17E-02  0.70113
   1538.    6.502  5.00E-07  1.18E-04  1.83E-06  4.32E-04  0.00E+00  0.00E+00  2.33E-06  5.51E-04  1.17E-02  0.69226
   1540.    6.494  5.08E-07  1.21E-04  1.80E-06  4.26E-04  0.00E+00  0.00E+00  2.30E-06  5.46E-04  1.17E-02  0.68398
   1542.    6.485  5.11E-07  1.22E-04  1.77E-06  4.22E-04  0.00E+00  0.00E+00  2.28E-06  5.43E-04  1.17E-02  0.67948
   1544.    6.477  5.13E-07  1.22E-04  1.75E-06  4.18E-04  0.00E+00  0.00E+00  2.27E-06  5.41E-04  1.17E-02  0.67584
   1546.    6.468  5.15E-07  1.23E-04  1.73E-06  4.15E-04  0.00E+00  0.00E+00  2.25E-06  5.38E-04  1.17E-02  0.67210
   1548.    6.460  5.17E-07  1.24E-04  1.71E-06  4.11E-04  0.00E+00  0.00E+00  2.23E-06  5.35E-04  1.17E-02  0.66830
   1550.    6.452  5.19E-07  1.25E-04  1.70E-06  4.07E-04  0.00E+00  0.00E+00  2.21E-06  5.32E-04  1.17E-02  0.66469
   1552.    6.443  5.19E-07  1.25E-04  1.68E-06  4.05E-04  0.00E+00  0.00E+00  2.20E-06  5.30E-04  1.17E-02  0.66217
   1554.    6.435  5.20E-07  1.25E-04  1.66E-06  4.02E-04  0.00E+00  0.00E+00  2.18E-06  5.27E-04  1.17E-02  0.65932
   1556.    6.427  5.14E-07  1.24E-04  1.66E-06  4.01E-04  0.00E+00  0.00E+00  2.17E-06  5.26E-04  1.17E-02  0.66121
   1558.    6.418  5.02E-07  1.22E-04  1.67E-06  4.04E-04  0.00E+00  0.00E+00  2.17E-06  5.26E-04  1.17E-02  0.66823
   1560.    6.410  4.91E-07  1.19E-04  1.67E-06  4.07E-04  0.00E+00  0.00E+00  2.16E-06  5.26E-04  1.17E-02  0.67438
   1562.    6.402  4.81E-07  1.17E-04  1.67E-06  4.08E-04  0.00E+00  0.00E+00  2.16E-06  5.26E-04  1.17E-02  0.67921
   1564.    6.394  4.72E-07  1.15E-04  1.68E-06  4.10E-04  0.00E+00  0.00E+00  2.15E-06  5.25E-04  1.17E-02  0.68383
   1566.    6.386  4.63E-07  1.13E-04  1.68E-06  4.11E-04  0.00E+00  0.00E+00  2.14E-06  5.25E-04  1.17E-02  0.68868
   1568.    6.378  4.53E-07  1.11E-04  1.68E-06  4.13E-04  0.00E+00  0.00E+00  2.13E-06  5.25E-04  1.17E-02  0.69373
   1570.    6.369  4.45E-07  1.10E-04  1.68E-06  4.15E-04  0.00E+00  0.00E+00  2.13E-06  5.24E-04  1.17E-02  0.69857
   1572.    6.361  4.37E-07  1.08E-04  1.68E-06  4.16E-04  0.00E+00  0.00E+00  2.12E-06  5.24E-04  1.17E-02  0.70285
   1574.    6.353  4.30E-07  1.07E-04  1.68E-06  4.17E-04  0.00E+00  0.00E+00  2.11E-06  5.23E-04  1.17E-02  0.70704
   1576.    6.345  4.24E-07  1.05E-04  1.68E-06  4.17E-04  0.00E+00  0.00E+00  2.10E-06  5.23E-04  1.17E-02  0.71007
   1578.    6.337  4.20E-07  1.04E-04  1.68E-06  4.17E-04  0.00E+00  0.00E+00  2.09E-06  5.22E-04  1.18E-02  0.71200
   1580.    6.329  4.15E-07  1.04E-04  1.67E-06  4.17E-04  0.00E+00  0.00E+00  2.09E-06  5.21E-04  1.18E-02  0.71401
   1582.    6.321  4.10E-07  1.03E-04  1.67E-06  4.17E-04  0.00E+00  0.00E+00  2.08E-06  5.20E-04  1.18E-02  0.71617
   1584.    6.313  4.05E-07  1.02E-04  1.66E-06  4.17E-04  0.00E+00  0.00E+00  2.07E-06  5.19E-04  1.18E-02  0.71925
   1586.    6.305  4.00E-07  1.01E-04  1.66E-06  4.17E-04  0.00E+00  0.00E+00  2.06E-06  5.18E-04  1.18E-02  0.72159
   1588.    6.297  3.96E-07  9.97E-05  1.65E-06  4.17E-04  0.00E+00  0.00E+00  2.05E-06  5.17E-04  1.18E-02  0.72357
   1590.    6.289  3.91E-07  9.90E-05  1.65E-06  4.17E-04  0.00E+00  0.00E+00  2.04E-06  5.16E-04  1.18E-02  0.72530
   1592.    6.281  3.89E-07  9.85E-05  1.64E-06  4.15E-04  0.00E+00  0.00E+00  2.03E-06  5.14E-04  1.18E-02  0.72529
   1594.    6.274  3.86E-07  9.81E-05  1.63E-06  4.14E-04  0.00E+00  0.00E+00  2.02E-06  5.12E-04  1.18E-02  0.72534
   1596.    6.266  3.83E-07  9.76E-05  1.62E-06  4.13E-04  0.00E+00  0.00E+00  2.00E-06  5.10E-04  1.18E-02  0.72566
   1598.    6.258  3.81E-07  9.72E-05  1.61E-06  4.11E-04  0.00E+00  0.00E+00  1.99E-06  5.09E-04  1.18E-02  0.72567
   1600.    6.250  3.78E-07  9.67E-05  1.60E-06  4.10E-04  0.00E+00  0.00E+00  1.98E-06  5.07E-04  1.18E-02  0.72579
  iv         1605
1                                             RADIANCE(WATTS/CM2-STER-XXX)
0  FREQ   WAVLEN    PATH THERMAL      SURFACE EMISSION    SURFACE REFLECTED     TOTAL RADIANCE   INTEGRAL    TOTAL
  (CM-1) (MICRN)    (CM-1)   (MICRN)    (CM-1)   (MICRN)    (CM-1)   (MICRN)    (CM-1)   (MICRN)    (CM-1)   TRANS

   1602.    6.242  3.74E-07  9.61E-05  1.59E-06  4.09E-04  0.00E+00  0.00E+00  1.97E-06  5.05E-04  1.18E-02  0.72658
   1604.    6.234  3.71E-07  9.55E-05  1.59E-06  4.08E-04  0.00E+00  0.00E+00  1.96E-06  5.03E-04  1.18E-02  0.72689
   1606.    6.227  3.67E-07  9.47E-05  1.58E-06  4.07E-04  0.00E+00  0.00E+00  1.95E-06  5.02E-04  1.18E-02  0.72845
   1608.    6.219  3.63E-07  9.40E-05  1.57E-06  4.07E-04  0.00E+00  0.00E+00  1.94E-06  5.01E-04  1.18E-02  0.72941
   1610.    6.211  3.60E-07  9.32E-05  1.57E-06  4.06E-04  0.00E+00  0.00E+00  1.93E-06  4.99E-04  1.18E-02  0.73050
   1612.    6.203  3.55E-07  9.23E-05  1.56E-06  4.06E-04  0.00E+00  0.00E+00  1.92E-06  4.98E-04  1.18E-02  0.73254
   1614.    6.196  3.51E-07  9.14E-05  1.56E-06  4.05E-04  0.00E+00  0.00E+00  1.91E-06  4.97E-04  1.18E-02  0.73440
   1616.    6.188  3.46E-07  9.04E-05  1.55E-06  4.05E-04  0.00E+00  0.00E+00  1.90E-06  4.95E-04  1.18E-02  0.73666
   1618.    6.180  3.41E-07  8.94E-05  1.55E-06  4.05E-04  0.00E+00  0.00E+00  1.89E-06  4.94E-04  1.18E-02  0.73927
   1620.    6.173  3.37E-07  8.84E-05  1.54E-06  4.05E-04  0.00E+00  0.00E+00  1.88E-06  4.93E-04  1.18E-02  0.74169
   1622.    6.165  3.32E-07  8.73E-05  1.54E-06  4.05E-04  0.00E+00  0.00E+00  1.87E-06  4.93E-04  1.18E-02  0.74484
   1624.    6.158  3.27E-07  8.62E-05  1.54E-06  4.06E-04  0.00E+00  0.00E+00  1.86E-06  4.92E-04  1.18E-02  0.74784
   1626.    6.150  3.22E-07  8.51E-05  1.54E-06  4.06E-04  0.00E+00  0.00E+00  1.86E-06  4.91E-04  1.18E-02  0.75116
   1628.    6.143  3.17E-07  8.39E-05  1.53E-06  4.07E-04  0.00E+00  0.00E+00  1.85E-06  4.90E-04  1.19E-02  0.75483
   1630.    6.135  3.11E-07  8.27E-05  1.53E-06  4.07E-04  0.00E+00  0.00E+00  1.84E-06  4.90E-04  1.19E-02  0.75828
   1632.    6.127  3.05E-07  8.13E-05  1.53E-06  4.08E-04  0.00E+00  0.00E+00  1.84E-06  4.89E-04  1.19E-02  0.76211
   1634.    6.120  2.99E-07  7.98E-05  1.53E-06  4.08E-04  0.00E+00  0.00E+00  1.83E-06  4.88E-04  1.19E-02  0.76599
   1636.    6.112  2.93E-07  7.84E-05  1.53E-06  4.09E-04  0.00E+00  0.00E+00  1.82E-06  4.87E-04  1.19E-02  0.76948
   1638.    6.105  2.86E-07  7.68E-05  1.53E-06  4.10E-04  0.00E+00  0.00E+00  1.81E-06  4.86E-04  1.19E-02  0.77392
   1640.    6.098  2.80E-07  7.53E-05  1.53E-06  4.10E-04  0.00E+00  0.00E+00  1.81E-06  4.86E-04  1.19E-02  0.77795
   1642.    6.090  2.74E-07  7.40E-05  1.52E-06  4.11E-04  0.00E+00  0.00E+00  1.80E-06  4.85E-04  1.19E-02  0.78222
   1644.    6.083  2.69E-07  7.27E-05  1.52E-06  4.12E-04  0.00E+00  0.00E+00  1.79E-06  4.85E-04  1.19E-02  0.78652
   1646.    6.075  2.64E-07  7.15E-05  1.52E-06  4.13E-04  0.00E+00  0.00E+00  1.79E-06  4.84E-04  1.19E-02  0.79039
   1648.    6.068  2.59E-07  7.03E-05  1.52E-06  4.13E-04  0.00E+00  0.00E+00  1.78E-06  4.84E-04  1.19E-02  0.79486
   1650.    6.061  2.54E-07  6.91E-05  1.52E-06  4.14E-04  0.00E+00  0.00E+00  1.77E-06  4.83E-04  1.19E-02  0.79896
   1652.    6.053  2.49E-07  6.80E-05  1.52E-06  4.15E-04  0.00E+00  0.00E+00  1.77E-06  4.83E-04  1.19E-02  0.80292
   1654.    6.046  2.44E-07  6.68E-05  1.52E-06  4.15E-04  0.00E+00  0.00E+00  1.76E-06  4.82E-04  1.19E-02  0.80684
   1656.    6.039  2.39E-07  6.57E-05  1.52E-06  4.16E-04  0.00E+00  0.00E+00  1.76E-06  4.81E-04  1.19E-02  0.81081
   1658.    6.031  2.34E-07  6.43E-05  1.52E-06  4.17E-04  0.00E+00  0.00E+00  1.75E-06  4.81E-04  1.19E-02  0.81523
   1660.    6.024  2.28E-07  6.29E-05  1.51E-06  4.17E-04  0.00E+00  0.00E+00  1.74E-06  4.80E-04  1.19E-02  0.81965
   1662.    6.017  2.23E-07  6.16E-05  1.51E-06  4.18E-04  0.00E+00  0.00E+00  1.74E-06  4.80E-04  1.19E-02  0.82394
   1664.    6.010  2.18E-07  6.03E-05  1.51E-06  4.19E-04  0.00E+00  0.00E+00  1.73E-06  4.79E-04  1.19E-02  0.82822
   1666.    6.002  2.13E-07  5.90E-05  1.51E-06  4.19E-04  0.00E+00  0.00E+00  1.72E-06  4.78E-04  1.19E-02  0.83246
   1668.    5.995  2.07E-07  5.77E-05  1.51E-06  4.20E-04  0.00E+00  0.00E+00  1.72E-06  4.78E-04  1.19E-02  0.83684
   1670.    5.988  2.02E-07  5.64E-05  1.51E-06  4.21E-04  0.00E+00  0.00E+00  1.71E-06  4.77E-04  1.19E-02  0.84121
   1672.    5.981  1.98E-07  5.53E-05  1.51E-06  4.21E-04  0.00E+00  0.00E+00  1.70E-06  4.76E-04  1.19E-02  0.84499
   1674.    5.974  1.93E-07  5.42E-05  1.50E-06  4.21E-04  0.00E+00  0.00E+00  1.70E-06  4.75E-04  1.19E-02  0.84869
   1676.    5.967  1.89E-07  5.31E-05  1.50E-06  4.22E-04  0.00E+00  0.00E+00  1.69E-06  4.75E-04  1.19E-02  0.85228
   1678.    5.959  1.85E-07  5.21E-05  1.50E-06  4.22E-04  0.00E+00  0.00E+00  1.68E-06  4.74E-04  1.19E-02  0.85585
   1680.    5.952  1.81E-07  5.10E-05  1.50E-06  4.22E-04  0.00E+00  0.00E+00  1.68E-06  4.73E-04  1.19E-02  0.85948
   1682.    5.945  1.77E-07  5.00E-05  1.49E-06  4.22E-04  0.00E+00  0.00E+00  1.67E-06  4.72E-04  1.19E-02  0.86317
   1684.    5.938  1.72E-07  4.89E-05  1.49E-06  4.23E-04  0.00E+00  0.00E+00  1.66E-06  4.71E-04  1.19E-02  0.86687
   1686.    5.931  1.69E-07  4.81E-05  1.49E-06  4.22E-04  0.00E+00  0.00E+00  1.65E-06  4.70E-04  1.20E-02  0.86934
   1688.    5.924  1.67E-07  4.75E-05  1.48E-06  4.21E-04  0.00E+00  0.00E+00  1.65E-06  4.69E-04  1.20E-02  0.87073
   1690.    5.917  1.64E-07  4.68E-05  1.47E-06  4.20E-04  0.00E+00  0.00E+00  1.64E-06  4.67E-04  1.20E-02  0.87207
   1692.    5.910  1.61E-07  4.62E-05  1.47E-06  4.20E-04  0.00E+00  0.00E+00  1.63E-06  4.66E-04  1.20E-02  0.87341
   1694.    5.903  1.59E-07  4.56E-05  1.46E-06  4.19E-04  0.00E+00  0.00E+00  1.62E-06  4.64E-04  1.20E-02  0.87476
   1696.    5.896  1.57E-07  4.51E-05  1.45E-06  4.18E-04  0.00E+00  0.00E+00  1.61E-06  4.63E-04  1.20E-02  0.87588
   1698.    5.889  1.55E-07  4.46E-05  1.44E-06  4.17E-04  0.00E+00  0.00E+00  1.60E-06  4.61E-04  1.20E-02  0.87688
   1700.    5.882  1.53E-07  4.41E-05  1.44E-06  4.15E-04  0.00E+00  0.00E+00  1.59E-06  4.60E-04  1.20E-02  0.87783
  iv         1705
1                                             RADIANCE(WATTS/CM2-STER-XXX)
0  FREQ   WAVLEN    PATH THERMAL      SURFACE EMISSION    SURFACE REFLECTED     TOTAL RADIANCE   INTEGRAL    TOTAL
  (CM-1) (MICRN)    (CM-1)   (MICRN)    (CM-1)   (MICRN)    (CM-1)   (MICRN)    (CM-1)   (MICRN)    (CM-1)   TRANS

   1702.    5.875  1.51E-07  4.37E-05  1.43E-06  4.14E-04  0.00E+00  0.00E+00  1.58E-06  4.58E-04  1.20E-02  0.87867
   1704.    5.869  1.49E-07  4.34E-05  1.42E-06  4.13E-04  0.00E+00  0.00E+00  1.57E-06  4.56E-04  1.20E-02  0.87950
   1706.    5.862  1.48E-07  4.30E-05  1.42E-06  4.12E-04  0.00E+00  0.00E+00  1.56E-06  4.55E-04  1.20E-02  0.88035
   1708.    5.855  1.46E-07  4.27E-05  1.41E-06  4.11E-04  0.00E+00  0.00E+00  1.55E-06  4.54E-04  1.20E-02  0.88127
   1710.    5.848  1.45E-07  4.23E-05  1.40E-06  4.10E-04  0.00E+00  0.00E+00  1.55E-06  4.52E-04  1.20E-02  0.88215
   1712.    5.841  1.43E-07  4.20E-05  1.39E-06  4.09E-04  0.00E+00  0.00E+00  1.54E-06  4.51E-04  1.20E-02  0.88292
   1714.    5.834  1.42E-07  4.16E-05  1.39E-06  4.07E-04  0.00E+00  0.00E+00  1.53E-06  4.49E-04  1.20E-02  0.88367
   1716.    5.828  1.40E-07  4.11E-05  1.38E-06  4.07E-04  0.00E+00  0.00E+00  1.52E-06  4.48E-04  1.20E-02  0.88519
   1718.    5.821  1.37E-07  4.05E-05  1.38E-06  4.06E-04  0.00E+00  0.00E+00  1.51E-06  4.47E-04  1.20E-02  0.88749
   1720.    5.814  1.35E-07  3.98E-05  1.37E-06  4.06E-04  0.00E+00  0.00E+00  1.51E-06  4.45E-04  1.20E-02  0.88977
   1722.    5.807  1.32E-07  3.91E-05  1.37E-06  4.05E-04  0.00E+00  0.00E+00  1.50E-06  4.44E-04  1.20E-02  0.89199
   1724.    5.800  1.30E-07  3.85E-05  1.36E-06  4.04E-04  0.00E+00  0.00E+00  1.49E-06  4.43E-04  1.20E-02  0.89421
   1726.    5.794  1.26E-07  3.76E-05  1.36E-06  4.04E-04  0.00E+00  0.00E+00  1.48E-06  4.42E-04  1.20E-02  0.89745
   1728.    5.787  1.22E-07  3.64E-05  1.36E-06  4.05E-04  0.00E+00  0.00E+00  1.48E-06  4.41E-04  1.20E-02  0.90171
   1730.    5.780  1.18E-07  3.52E-05  1.35E-06  4.05E-04  0.00E+00  0.00E+00  1.47E-06  4.40E-04  1.20E-02  0.90589
   1732.    5.774  1.13E-07  3.40E-05  1.35E-06  4.05E-04  0.00E+00  0.00E+00  1.46E-06  4.39E-04  1.20E-02  0.90954
   1734.    5.767  1.10E-07  3.29E-05  1.35E-06  4.05E-04  0.00E+00  0.00E+00  1.46E-06  4.38E-04  1.20E-02  0.91309
   1736.    5.760  1.07E-07  3.22E-05  1.34E-06  4.05E-04  0.00E+00  0.00E+00  1.45E-06  4.37E-04  1.20E-02  0.91550
   1738.    5.754  1.05E-07  3.17E-05  1.34E-06  4.04E-04  0.00E+00  0.00E+00  1.44E-06  4.35E-04  1.20E-02  0.91674
   1740.    5.747  1.03E-07  3.13E-05  1.33E-06  4.03E-04  0.00E+00  0.00E+00  1.43E-06  4.34E-04  1.20E-02  0.91790
   1742.    5.741  1.02E-07  3.10E-05  1.32E-06  4.01E-04  0.00E+00  0.00E+00  1.43E-06  4.32E-04  1.20E-02  0.91856
   1744.    5.734  1.01E-07  3.08E-05  1.32E-06  4.00E-04  0.00E+00  0.00E+00  1.42E-06  4.31E-04  1.20E-02  0.91914
   1746.    5.727  1.00E-07  3.06E-05  1.31E-06  3.99E-04  0.00E+00  0.00E+00  1.41E-06  4.29E-04  1.20E-02  0.91954
   1748.    5.721  9.95E-08  3.04E-05  1.30E-06  3.97E-04  0.00E+00  0.00E+00  1.40E-06  4.28E-04  1.20E-02  0.91978
   1750.    5.714  9.87E-08  3.02E-05  1.29E-06  3.96E-04  0.00E+00  0.00E+00  1.39E-06  4.26E-04  1.20E-02  0.91999
   1752.    5.708  9.81E-08  3.01E-05  1.28E-06  3.94E-04  0.00E+00  0.00E+00  1.38E-06  4.24E-04  1.21E-02  0.92008
   1754.    5.701  9.74E-08  3.00E-05  1.28E-06  3.93E-04  0.00E+00  0.00E+00  1.37E-06  4.23E-04  1.21E-02  0.92014
   1756.    5.695  9.68E-08  2.99E-05  1.27E-06  3.91E-04  0.00E+00  0.00E+00  1.37E-06  4.21E-04  1.21E-02  0.92021
   1758.    5.688  9.62E-08  2.97E-05  1.26E-06  3.90E-04  0.00E+00  0.00E+00  1.36E-06  4.20E-04  1.21E-02  0.92028
   1760.    5.682  9.56E-08  2.96E-05  1.25E-06  3.88E-04  0.00E+00  0.00E+00  1.35E-06  4.18E-04  1.21E-02  0.92032
   1762.    5.675  9.51E-08  2.95E-05  1.25E-06  3.87E-04  0.00E+00  0.00E+00  1.34E-06  4.16E-04  1.21E-02  0.92024
   1764.    5.669  9.46E-08  2.94E-05  1.24E-06  3.85E-04  0.00E+00  0.00E+00  1.33E-06  4.15E-04  1.21E-02  0.92014
   1766.    5.663  9.41E-08  2.94E-05  1.23E-06  3.84E-04  0.00E+00  0.00E+00  1.32E-06  4.13E-04  1.21E-02  0.92004
   1768.    5.656  9.37E-08  2.93E-05  1.22E-06  3.82E-04  0.00E+00  0.00E+00  1.32E-06  4.11E-04  1.21E-02  0.91993
   1770.    5.650  9.32E-08  2.92E-05  1.21E-06  3.81E-04  0.00E+00  0.00E+00  1.31E-06  4.10E-04  1.21E-02  0.91983
   1772.    5.643  9.27E-08  2.91E-05  1.21E-06  3.79E-04  0.00E+00  0.00E+00  1.30E-06  4.08E-04  1.21E-02  0.91973
   1774.    5.637  9.23E-08  2.90E-05  1.20E-06  3.77E-04  0.00E+00  0.00E+00  1.29E-06  4.07E-04  1.21E-02  0.91963
   1776.    5.631  9.18E-08  2.89E-05  1.19E-06  3.76E-04  0.00E+00  0.00E+00  1.28E-06  4.05E-04  1.21E-02  0.91953
   1778.    5.624  9.13E-08  2.89E-05  1.18E-06  3.74E-04  0.00E+00  0.00E+00  1.28E-06  4.03E-04  1.21E-02  0.91943
   1780.    5.618  9.09E-08  2.88E-05  1.18E-06  3.73E-04  0.00E+00  0.00E+00  1.27E-06  4.02E-04  1.21E-02  0.91933
   1782.    5.612  9.04E-08  2.87E-05  1.17E-06  3.71E-04  0.00E+00  0.00E+00  1.26E-06  4.00E-04  1.21E-02  0.91923
   1784.    5.605  8.99E-08  2.86E-05  1.16E-06  3.70E-04  0.00E+00  0.00E+00  1.25E-06  3.98E-04  1.21E-02  0.91913
   1786.    5.599  8.95E-08  2.85E-05  1.15E-06  3.68E-04  0.00E+00  0.00E+00  1.24E-06  3.97E-04  1.21E-02  0.91903
   1788.    5.593  8.90E-08  2.85E-05  1.15E-06  3.67E-04  0.00E+00  0.00E+00  1.24E-06  3.95E-04  1.21E-02  0.91893
   1790.    5.587  8.86E-08  2.84E-05  1.14E-06  3.65E-04  0.00E+00  0.00E+00  1.23E-06  3.94E-04  1.21E-02  0.91883
   1792.    5.580  8.81E-08  2.83E-05  1.13E-06  3.64E-04  0.00E+00  0.00E+00  1.22E-06  3.92E-04  1.21E-02  0.91873
   1794.    5.574  8.76E-08  2.82E-05  1.13E-06  3.62E-04  0.00E+00  0.00E+00  1.21E-06  3.90E-04  1.21E-02  0.91863
   1796.    5.568  8.72E-08  2.81E-05  1.12E-06  3.61E-04  0.00E+00  0.00E+00  1.21E-06  3.89E-04  1.21E-02  0.91853
   1798.    5.562  8.67E-08  2.80E-05  1.11E-06  3.59E-04  0.00E+00  0.00E+00  1.20E-06  3.87E-04  1.21E-02  0.91843
   1800.    5.556  8.63E-08  2.80E-05  1.10E-06  3.58E-04  0.00E+00  0.00E+00  1.19E-06  3.86E-04  1.21E-02  0.91833
  iv         1805
1                                             RADIANCE(WATTS/CM2-STER-XXX)
0  FREQ   WAVLEN    PATH THERMAL      SURFACE EMISSION    SURFACE REFLECTED     TOTAL RADIANCE   INTEGRAL    TOTAL
  (CM-1) (MICRN)    (CM-1)   (MICRN)    (CM-1)   (MICRN)    (CM-1)   (MICRN)    (CM-1)   (MICRN)    (CM-1)   TRANS

   1802.    5.549  8.58E-08  2.79E-05  1.10E-06  3.56E-04  0.00E+00  0.00E+00  1.18E-06  3.84E-04  1.21E-02  0.91823
   1804.    5.543  8.54E-08  2.78E-05  1.09E-06  3.55E-04  0.00E+00  0.00E+00  1.18E-06  3.83E-04  1.21E-02  0.91813
   1806.    5.537  8.50E-08  2.77E-05  1.08E-06  3.53E-04  0.00E+00  0.00E+00  1.17E-06  3.81E-04  1.21E-02  0.91803
   1808.    5.531  8.45E-08  2.76E-05  1.08E-06  3.52E-04  0.00E+00  0.00E+00  1.16E-06  3.80E-04  1.21E-02  0.91791
   1810.    5.525  8.41E-08  2.76E-05  1.07E-06  3.50E-04  0.00E+00  0.00E+00  1.15E-06  3.78E-04  1.21E-02  0.91779
   1812.    5.519  8.37E-08  2.75E-05  1.06E-06  3.49E-04  0.00E+00  0.00E+00  1.15E-06  3.76E-04  1.21E-02  0.91765
   1814.    5.513  8.33E-08  2.74E-05  1.06E-06  3.47E-04  0.00E+00  0.00E+00  1.14E-06  3.75E-04  1.21E-02  0.91754
   1816.    5.507  8.29E-08  2.73E-05  1.05E-06  3.46E-04  0.00E+00  0.00E+00  1.13E-06  3.73E-04  1.21E-02  0.91741
   1818.    5.501  8.24E-08  2.72E-05  1.04E-06  3.45E-04  0.00E+00  0.00E+00  1.12E-06  3.72E-04  1.21E-02  0.91730
   1820.    5.495  8.20E-08  2.72E-05  1.04E-06  3.43E-04  0.00E+00  0.00E+00  1.12E-06  3.70E-04  1.21E-02  0.91718
   1822.    5.488  8.16E-08  2.71E-05  1.03E-06  3.42E-04  0.00E+00  0.00E+00  1.11E-06  3.69E-04  1.21E-02  0.91707
   1824.    5.482  8.11E-08  2.70E-05  1.02E-06  3.40E-04  0.00E+00  0.00E+00  1.10E-06  3.67E-04  1.21E-02  0.91699
   1826.    5.476  8.07E-08  2.69E-05  1.02E-06  3.39E-04  0.00E+00  0.00E+00  1.10E-06  3.66E-04  1.21E-02  0.91685
   1828.    5.470  8.02E-08  2.68E-05  1.01E-06  3.37E-04  0.00E+00  0.00E+00  1.09E-06  3.64E-04  1.21E-02  0.91686
   1830.    5.464  7.98E-08  2.67E-05  1.00E-06  3.36E-04  0.00E+00  0.00E+00  1.08E-06  3.63E-04  1.21E-02  0.91668
   1832.    5.459  7.94E-08  2.66E-05  9.97E-07  3.34E-04  0.00E+00  0.00E+00  1.08E-06  3.61E-04  1.21E-02  0.91665
   1834.    5.453  7.89E-08  2.65E-05  9.90E-07  3.33E-04  0.00E+00  0.00E+00  1.07E-06  3.60E-04  1.22E-02  0.91660
   1836.    5.447  7.85E-08  2.65E-05  9.84E-07  3.32E-04  0.00E+00  0.00E+00  1.06E-06  3.58E-04  1.22E-02  0.91646
   1838.    5.441  7.81E-08  2.64E-05  9.78E-07  3.30E-04  0.00E+00  0.00E+00  1.06E-06  3.57E-04  1.22E-02  0.91628
   1840.    5.435  7.77E-08  2.63E-05  9.71E-07  3.29E-04  0.00E+00  0.00E+00  1.05E-06  3.55E-04  1.22E-02  0.91626
   1842.    5.429  7.74E-08  2.63E-05  9.65E-07  3.27E-04  0.00E+00  0.00E+00  1.04E-06  3.54E-04  1.22E-02  0.91592
   1844.    5.423  7.71E-08  2.62E-05  9.58E-07  3.26E-04  0.00E+00  0.00E+00  1.04E-06  3.52E-04  1.22E-02  0.91550
   1846.    5.417  7.67E-08  2.61E-05  9.52E-07  3.24E-04  0.00E+00  0.00E+00  1.03E-06  3.51E-04  1.22E-02  0.91547
   1848.    5.411  7.67E-08  2.62E-05  9.45E-07  3.23E-04  0.00E+00  0.00E+00  1.02E-06  3.49E-04  1.22E-02  0.91455
   1850.    5.405  7.67E-08  2.62E-05  9.38E-07  3.21E-04  0.00E+00  0.00E+00  1.02E-06  3.47E-04  1.22E-02  0.91377
   1852.    5.400  7.61E-08  2.61E-05  9.33E-07  3.20E-04  0.00E+00  0.00E+00  1.01E-06  3.46E-04  1.22E-02  0.91397
   1854.    5.394  7.65E-08  2.63E-05  9.25E-07  3.18E-04  0.00E+00  0.00E+00  1.00E-06  3.44E-04  1.22E-02  0.91233
   1856.    5.388  7.64E-08  2.63E-05  9.18E-07  3.16E-04  0.00E+00  0.00E+00  9.95E-07  3.43E-04  1.22E-02  0.91144
   1858.    5.382  7.56E-08  2.61E-05  9.13E-07  3.15E-04  0.00E+00  0.00E+00  9.89E-07  3.41E-04  1.22E-02  0.91213
   1860.    5.376  7.60E-08  2.63E-05  9.05E-07  3.13E-04  0.00E+00  0.00E+00  9.81E-07  3.40E-04  1.22E-02  0.91025
   1862.    5.371  7.57E-08  2.62E-05  8.99E-07  3.12E-04  0.00E+00  0.00E+00  9.75E-07  3.38E-04  1.22E-02  0.90974
   1864.    5.365  7.47E-08  2.59E-05  8.95E-07  3.11E-04  0.00E+00  0.00E+00  9.69E-07  3.37E-04  1.22E-02  0.91092
   1866.    5.359  7.49E-08  2.61E-05  8.87E-07  3.09E-04  0.00E+00  0.00E+00  9.62E-07  3.35E-04  1.22E-02  0.90925
   1868.    5.353  7.42E-08  2.59E-05  8.82E-07  3.08E-04  0.00E+00  0.00E+00  9.56E-07  3.34E-04  1.22E-02  0.90963
   1870.    5.348  7.32E-08  2.56E-05  8.78E-07  3.07E-04  0.00E+00  0.00E+00  9.51E-07  3.33E-04  1.22E-02  0.91092
   1872.    5.342  7.33E-08  2.57E-05  8.71E-07  3.05E-04  0.00E+00  0.00E+00  9.44E-07  3.31E-04  1.22E-02  0.90967
   1874.    5.336  7.26E-08  2.55E-05  8.66E-07  3.04E-04  0.00E+00  0.00E+00  9.38E-07  3.30E-04  1.22E-02  0.91012
   1876.    5.330  7.23E-08  2.55E-05  8.60E-07  3.03E-04  0.00E+00  0.00E+00  9.32E-07  3.28E-04  1.22E-02  0.90980
   1878.    5.325  7.20E-08  2.54E-05  8.54E-07  3.01E-04  0.00E+00  0.00E+00  9.26E-07  3.27E-04  1.22E-02  0.90922
   1880.    5.319  7.35E-08  2.60E-05  8.45E-07  2.98E-04  0.00E+00  0.00E+00  9.18E-07  3.24E-04  1.22E-02  0.90505
   1882.    5.313  7.35E-08  2.60E-05  8.39E-07  2.97E-04  0.00E+00  0.00E+00  9.12E-07  3.23E-04  1.22E-02  0.90459
   1884.    5.308  7.27E-08  2.58E-05  8.34E-07  2.96E-04  0.00E+00  0.00E+00  9.06E-07  3.22E-04  1.22E-02  0.90499
   1886.    5.302  7.56E-08  2.69E-05  8.22E-07  2.92E-04  0.00E+00  0.00E+00  8.98E-07  3.19E-04  1.22E-02  0.89830
   1888.    5.297  7.47E-08  2.66E-05  8.18E-07  2.92E-04  0.00E+00  0.00E+00  8.93E-07  3.18E-04  1.22E-02  0.89951
   1890.    5.291  7.87E-08  2.81E-05  8.04E-07  2.87E-04  0.00E+00  0.00E+00  8.83E-07  3.15E-04  1.22E-02  0.88954
   1892.    5.285  8.28E-08  2.96E-05  7.89E-07  2.82E-04  0.00E+00  0.00E+00  8.72E-07  3.12E-04  1.22E-02  0.87885
   1894.    5.280  8.14E-08  2.92E-05  7.85E-07  2.82E-04  0.00E+00  0.00E+00  8.67E-07  3.11E-04  1.22E-02  0.88043
   1896.    5.274  9.38E-08  3.37E-05  7.51E-07  2.70E-04  0.00E+00  0.00E+00  8.45E-07  3.04E-04  1.22E-02  0.84784
   1898.    5.269  1.00E-07  3.60E-05  7.28E-07  2.62E-04  0.00E+00  0.00E+00  8.28E-07  2.98E-04  1.22E-02  0.82674
   1900.    5.263  9.43E-08  3.40E-05  7.35E-07  2.65E-04  0.00E+00  0.00E+00  8.29E-07  2.99E-04  1.22E-02  0.83970
  iv         1905
1                                             RADIANCE(WATTS/CM2-STER-XXX)
0  FREQ   WAVLEN    PATH THERMAL      SURFACE EMISSION    SURFACE REFLECTED     TOTAL RADIANCE   INTEGRAL    TOTAL
  (CM-1) (MICRN)    (CM-1)   (MICRN)    (CM-1)   (MICRN)    (CM-1)   (MICRN)    (CM-1)   (MICRN)    (CM-1)   TRANS

   1902.    5.258  1.12E-07  4.06E-05  6.79E-07  2.46E-04  0.00E+00  0.00E+00  7.91E-07  2.86E-04  1.22E-02  0.78124
   1904.    5.252  1.12E-07  4.05E-05  6.68E-07  2.42E-04  0.00E+00  0.00E+00  7.80E-07  2.83E-04  1.22E-02  0.77341
   1906.    5.247  1.05E-07  3.80E-05  6.82E-07  2.48E-04  0.00E+00  0.00E+00  7.87E-07  2.86E-04  1.22E-02  0.79463
   1908.    5.241  1.17E-07  4.26E-05  6.32E-07  2.30E-04  0.00E+00  0.00E+00  7.49E-07  2.73E-04  1.22E-02  0.74077
   1910.    5.236  1.16E-07  4.24E-05  6.21E-07  2.26E-04  0.00E+00  0.00E+00  7.37E-07  2.69E-04  1.22E-02  0.73263
   1912.    5.230  1.05E-07  3.85E-05  6.50E-07  2.38E-04  0.00E+00  0.00E+00  7.55E-07  2.76E-04  1.22E-02  0.77223
   1914.    5.225  1.14E-07  4.18E-05  6.06E-07  2.22E-04  0.00E+00  0.00E+00  7.20E-07  2.64E-04  1.22E-02  0.72495
   1916.    5.219  1.12E-07  4.12E-05  6.01E-07  2.21E-04  0.00E+00  0.00E+00  7.13E-07  2.62E-04  1.22E-02  0.72264
   1918.    5.214  1.22E-07  4.49E-05  5.85E-07  2.15E-04  0.00E+00  0.00E+00  7.07E-07  2.60E-04  1.22E-02  0.70807
   1920.    5.208  1.14E-07  4.20E-05  5.83E-07  2.15E-04  0.00E+00  0.00E+00  6.97E-07  2.57E-04  1.22E-02  0.71141
   1922.    5.203  1.01E-07  3.71E-05  6.16E-07  2.28E-04  0.00E+00  0.00E+00  7.17E-07  2.65E-04  1.22E-02  0.75606
   1924.    5.198  8.57E-08  3.17E-05  6.62E-07  2.45E-04  0.00E+00  0.00E+00  7.47E-07  2.77E-04  1.22E-02  0.81706
   1926.    5.192  8.65E-08  3.21E-05  6.49E-07  2.41E-04  0.00E+00  0.00E+00  7.35E-07  2.73E-04  1.22E-02  0.80651
   1928.    5.187  7.58E-08  2.82E-05  6.80E-07  2.53E-04  0.00E+00  0.00E+00  7.56E-07  2.81E-04  1.22E-02  0.85039
   1930.    5.181  6.71E-08  2.50E-05  7.05E-07  2.63E-04  0.00E+00  0.00E+00  7.72E-07  2.88E-04  1.22E-02  0.88774
   1932.    5.176  1.13E-07  4.22E-05  4.87E-07  1.82E-04  0.00E+00  0.00E+00  6.00E-07  2.24E-04  1.22E-02  0.61633
   1934.    5.171  1.42E-07  5.30E-05  4.00E-07  1.50E-04  0.00E+00  0.00E+00  5.41E-07  2.03E-04  1.22E-02  0.51053
   1936.    5.165  8.42E-08  3.16E-05  6.47E-07  2.42E-04  0.00E+00  0.00E+00  7.31E-07  2.74E-04  1.22E-02  0.83071
   1938.    5.160  6.48E-08  2.43E-05  6.89E-07  2.59E-04  0.00E+00  0.00E+00  7.54E-07  2.83E-04  1.22E-02  0.89058
   1940.    5.155  6.24E-08  2.35E-05  6.89E-07  2.59E-04  0.00E+00  0.00E+00  7.51E-07  2.83E-04  1.22E-02  0.89579
   1942.    5.149  5.98E-08  2.25E-05  6.92E-07  2.61E-04  0.00E+00  0.00E+00  7.51E-07  2.83E-04  1.22E-02  0.90554
   1944.    5.144  5.86E-08  2.21E-05  6.90E-07  2.61E-04  0.00E+00  0.00E+00  7.48E-07  2.83E-04  1.22E-02  0.90886
   1946.    5.139  5.78E-08  2.19E-05  6.87E-07  2.60E-04  0.00E+00  0.00E+00  7.44E-07  2.82E-04  1.22E-02  0.91067
   1948.    5.133  5.78E-08  2.19E-05  6.81E-07  2.58E-04  0.00E+00  0.00E+00  7.39E-07  2.80E-04  1.22E-02  0.90887
   1950.    5.128  5.85E-08  2.22E-05  6.74E-07  2.56E-04  0.00E+00  0.00E+00  7.32E-07  2.78E-04  1.23E-02  0.90527
   1952.    5.123  6.09E-08  2.32E-05  6.62E-07  2.52E-04  0.00E+00  0.00E+00  7.22E-07  2.75E-04  1.23E-02  0.89496
   1954.    5.118  6.00E-08  2.29E-05  6.59E-07  2.51E-04  0.00E+00  0.00E+00  7.19E-07  2.74E-04  1.23E-02  0.89665
   1956.    5.112  6.27E-08  2.40E-05  6.46E-07  2.47E-04  0.00E+00  0.00E+00  7.09E-07  2.71E-04  1.23E-02  0.88518
   1958.    5.107  6.10E-08  2.34E-05  6.46E-07  2.48E-04  0.00E+00  0.00E+00  7.07E-07  2.71E-04  1.23E-02  0.89108
   1960.    5.102  6.31E-08  2.42E-05  6.35E-07  2.44E-04  0.00E+00  0.00E+00  6.98E-07  2.68E-04  1.23E-02  0.88207
   1962.    5.097  6.04E-08  2.32E-05  6.38E-07  2.46E-04  0.00E+00  0.00E+00  6.98E-07  2.69E-04  1.23E-02  0.89171
   1964.    5.092  6.21E-08  2.39E-05  6.29E-07  2.43E-04  0.00E+00  0.00E+00  6.91E-07  2.67E-04  1.23E-02  0.88503
   1966.    5.086  5.90E-08  2.28E-05  6.32E-07  2.44E-04  0.00E+00  0.00E+00  6.91E-07  2.67E-04  1.23E-02  0.89516
   1968.    5.081  5.79E-08  2.24E-05  6.30E-07  2.44E-04  0.00E+00  0.00E+00  6.88E-07  2.66E-04  1.23E-02  0.89778
   1970.    5.076  5.85E-08  2.27E-05  6.24E-07  2.42E-04  0.00E+00  0.00E+00  6.82E-07  2.65E-04  1.23E-02  0.89496
   1972.    5.071  5.70E-08  2.22E-05  6.23E-07  2.42E-04  0.00E+00  0.00E+00  6.80E-07  2.64E-04  1.23E-02  0.89922
   1974.    5.066  5.47E-08  2.13E-05  6.23E-07  2.43E-04  0.00E+00  0.00E+00  6.77E-07  2.64E-04  1.23E-02  0.90517
   1976.    5.061  5.40E-08  2.11E-05  6.19E-07  2.42E-04  0.00E+00  0.00E+00  6.73E-07  2.63E-04  1.23E-02  0.90642
   1978.    5.056  5.37E-08  2.10E-05  6.15E-07  2.41E-04  0.00E+00  0.00E+00  6.69E-07  2.62E-04  1.23E-02  0.90621
   1980.    5.051  5.27E-08  2.07E-05  6.13E-07  2.40E-04  0.00E+00  0.00E+00  6.65E-07  2.61E-04  1.23E-02  0.90833
   1982.    5.045  5.22E-08  2.05E-05  6.09E-07  2.39E-04  0.00E+00  0.00E+00  6.61E-07  2.60E-04  1.23E-02  0.90876
   1984.    5.040  5.16E-08  2.03E-05  6.05E-07  2.38E-04  0.00E+00  0.00E+00  6.57E-07  2.59E-04  1.23E-02  0.90939
   1986.    5.035  5.11E-08  2.02E-05  6.02E-07  2.37E-04  0.00E+00  0.00E+00  6.53E-07  2.57E-04  1.23E-02  0.90992
   1988.    5.030  5.08E-08  2.01E-05  5.98E-07  2.36E-04  0.00E+00  0.00E+00  6.49E-07  2.56E-04  1.23E-02  0.90990
   1990.    5.025  5.05E-08  2.00E-05  5.94E-07  2.35E-04  0.00E+00  0.00E+00  6.44E-07  2.55E-04  1.23E-02  0.90964
   1992.    5.020  5.02E-08  1.99E-05  5.90E-07  2.34E-04  0.00E+00  0.00E+00  6.40E-07  2.54E-04  1.23E-02  0.90978
   1994.    5.015  4.98E-08  1.98E-05  5.86E-07  2.33E-04  0.00E+00  0.00E+00  6.36E-07  2.53E-04  1.23E-02  0.90998
   1996.    5.010  4.99E-08  1.99E-05  5.81E-07  2.32E-04  0.00E+00  0.00E+00  6.31E-07  2.51E-04  1.23E-02  0.90844
   1998.    5.005  4.98E-08  1.99E-05  5.77E-07  2.30E-04  0.00E+00  0.00E+00  6.27E-07  2.50E-04  1.23E-02  0.90777
   2000.    5.000  4.94E-08  1.98E-05  5.73E-07  2.29E-04  0.00E+00  0.00E+00  6.23E-07  2.49E-04  1.23E-02  0.90790
  iv         2005
1                                             RADIANCE(WATTS/CM2-STER-XXX)
0  FREQ   WAVLEN    PATH THERMAL      SURFACE EMISSION    SURFACE REFLECTED     TOTAL RADIANCE   INTEGRAL    TOTAL
  (CM-1) (MICRN)    (CM-1)   (MICRN)    (CM-1)   (MICRN)    (CM-1)   (MICRN)    (CM-1)   (MICRN)    (CM-1)   TRANS

   2002.    4.995  5.04E-08  2.02E-05  5.67E-07  2.27E-04  0.00E+00  0.00E+00  6.17E-07  2.47E-04  1.23E-02  0.90333
   2004.    4.990  5.03E-08  2.02E-05  5.62E-07  2.26E-04  0.00E+00  0.00E+00  6.12E-07  2.46E-04  1.23E-02  0.90236
   2006.    4.985  5.07E-08  2.04E-05  5.56E-07  2.24E-04  0.00E+00  0.00E+00  6.07E-07  2.44E-04  1.23E-02  0.89895
   2008.    4.980  5.01E-08  2.02E-05  5.53E-07  2.23E-04  0.00E+00  0.00E+00  6.03E-07  2.43E-04  1.23E-02  0.89997
   2010.    4.975  5.15E-08  2.08E-05  5.45E-07  2.20E-04  0.00E+00  0.00E+00  5.96E-07  2.41E-04  1.23E-02  0.89196
   2012.    4.970  5.06E-08  2.05E-05  5.42E-07  2.20E-04  0.00E+00  0.00E+00  5.93E-07  2.40E-04  1.23E-02  0.89435
   2014.    4.965  5.24E-08  2.12E-05  5.32E-07  2.16E-04  0.00E+00  0.00E+00  5.85E-07  2.37E-04  1.23E-02  0.88363
   2016.    4.960  5.13E-08  2.08E-05  5.31E-07  2.16E-04  0.00E+00  0.00E+00  5.83E-07  2.37E-04  1.23E-02  0.88781
   2018.    4.955  5.30E-08  2.16E-05  5.21E-07  2.12E-04  0.00E+00  0.00E+00  5.74E-07  2.34E-04  1.23E-02  0.87633
   2020.    4.950  5.32E-08  2.17E-05  5.15E-07  2.10E-04  0.00E+00  0.00E+00  5.69E-07  2.32E-04  1.23E-02  0.87287
   2022.    4.946  5.18E-08  2.12E-05  5.16E-07  2.11E-04  0.00E+00  0.00E+00  5.68E-07  2.32E-04  1.23E-02  0.88020
   2024.    4.941  5.23E-08  2.14E-05  5.11E-07  2.09E-04  0.00E+00  0.00E+00  5.64E-07  2.31E-04  1.23E-02  0.87773
   2026.    4.936  5.43E-08  2.23E-05  5.01E-07  2.06E-04  0.00E+00  0.00E+00  5.55E-07  2.28E-04  1.23E-02  0.86561
   2028.    4.931  5.58E-08  2.30E-05  4.95E-07  2.04E-04  0.00E+00  0.00E+00  5.51E-07  2.26E-04  1.23E-02  0.86088
   2030.    4.926  5.53E-08  2.28E-05  4.94E-07  2.04E-04  0.00E+00  0.00E+00  5.49E-07  2.26E-04  1.23E-02  0.86557
   2032.    4.921  6.07E-08  2.51E-05  4.79E-07  1.98E-04  0.00E+00  0.00E+00  5.40E-07  2.23E-04  1.23E-02  0.84446
   2034.    4.916  6.70E-08  2.77E-05  4.62E-07  1.91E-04  0.00E+00  0.00E+00  5.29E-07  2.19E-04  1.23E-02  0.81969
   2036.    4.912  7.29E-08  3.02E-05  4.30E-07  1.78E-04  0.00E+00  0.00E+00  5.02E-07  2.08E-04  1.23E-02  0.76748
   2038.    4.907  9.67E-08  4.02E-05  3.59E-07  1.49E-04  0.00E+00  0.00E+00  4.56E-07  1.89E-04  1.23E-02  0.64592
   2040.    4.902  8.88E-08  3.70E-05  3.86E-07  1.61E-04  0.00E+00  0.00E+00  4.75E-07  1.98E-04  1.23E-02  0.69911
   2042.    4.897  8.39E-08  3.50E-05  3.93E-07  1.64E-04  0.00E+00  0.00E+00  4.77E-07  1.99E-04  1.23E-02  0.71726
   2044.    4.892  9.74E-08  4.07E-05  3.41E-07  1.42E-04  0.00E+00  0.00E+00  4.38E-07  1.83E-04  1.23E-02  0.62564
   2046.    4.888  9.02E-08  3.78E-05  3.57E-07  1.49E-04  0.00E+00  0.00E+00  4.47E-07  1.87E-04  1.23E-02  0.65960
   2048.    4.883  1.01E-07  4.25E-05  2.95E-07  1.24E-04  0.00E+00  0.00E+00  3.96E-07  1.66E-04  1.23E-02  0.54863
   2050.    4.878  1.06E-07  4.47E-05  2.83E-07  1.19E-04  0.00E+00  0.00E+00  3.89E-07  1.64E-04  1.23E-02  0.53038
   2052.    4.873  1.15E-07  4.85E-05  2.17E-07  9.14E-05  0.00E+00  0.00E+00  3.32E-07  1.40E-04  1.23E-02  0.40994
   2054.    4.869  1.16E-07  4.89E-05  2.11E-07  8.91E-05  0.00E+00  0.00E+00  3.27E-07  1.38E-04  1.23E-02  0.40067
   2056.    4.864  1.11E-07  4.69E-05  2.54E-07  1.07E-04  0.00E+00  0.00E+00  3.65E-07  1.54E-04  1.23E-02  0.48534
   2058.    4.859  1.10E-07  4.68E-05  2.11E-07  8.94E-05  0.00E+00  0.00E+00  3.22E-07  1.36E-04  1.23E-02  0.40662
   2060.    4.854  1.10E-07  4.68E-05  1.98E-07  8.38E-05  0.00E+00  0.00E+00  3.08E-07  1.31E-04  1.23E-02  0.38268
   2062.    4.850  1.08E-07  4.60E-05  2.29E-07  9.75E-05  0.00E+00  0.00E+00  3.37E-07  1.43E-04  1.23E-02  0.44744
   2064.    4.845  1.07E-07  4.56E-05  1.81E-07  7.70E-05  0.00E+00  0.00E+00  2.88E-07  1.23E-04  1.23E-02  0.35529
   2066.    4.840  1.03E-07  4.40E-05  2.30E-07  9.81E-05  0.00E+00  0.00E+00  3.33E-07  1.42E-04  1.23E-02  0.45443
   2068.    4.836  9.79E-08  4.18E-05  2.29E-07  9.77E-05  0.00E+00  0.00E+00  3.26E-07  1.40E-04  1.23E-02  0.45489
   2070.    4.831  1.01E-07  4.34E-05  2.49E-07  1.07E-04  0.00E+00  0.00E+00  3.50E-07  1.50E-04  1.23E-02  0.49927
   2072.    4.826  9.50E-08  4.08E-05  2.48E-07  1.06E-04  0.00E+00  0.00E+00  3.43E-07  1.47E-04  1.23E-02  0.50026
   2074.    4.822  9.20E-08  3.96E-05  2.84E-07  1.22E-04  0.00E+00  0.00E+00  3.76E-07  1.62E-04  1.23E-02  0.57705
   2076.    4.817  9.73E-08  4.19E-05  1.60E-07  6.89E-05  0.00E+00  0.00E+00  2.57E-07  1.11E-04  1.23E-02  0.32668
   2078.    4.812  5.99E-08  2.59E-05  2.02E-08  8.72E-06  0.00E+00  0.00E+00  8.01E-08  3.46E-05  1.23E-02  0.04176
   2080.    4.808  1.10E-07  4.77E-05  2.04E-07  8.84E-05  0.00E+00  0.00E+00  3.15E-07  1.36E-04  1.23E-02  0.42428
   2082.    4.803  8.87E-08  3.84E-05  2.62E-07  1.14E-04  0.00E+00  0.00E+00  3.51E-07  1.52E-04  1.23E-02  0.54784
   2084.    4.798  7.97E-08  3.46E-05  2.91E-07  1.26E-04  0.00E+00  0.00E+00  3.71E-07  1.61E-04  1.23E-02  0.61228
   2086.    4.794  7.19E-08  3.13E-05  3.24E-07  1.41E-04  0.00E+00  0.00E+00  3.96E-07  1.72E-04  1.23E-02  0.68652
   2088.    4.789  6.47E-08  2.82E-05  3.43E-07  1.50E-04  0.00E+00  0.00E+00  4.08E-07  1.78E-04  1.23E-02  0.73168
   2090.    4.785  6.22E-08  2.72E-05  3.45E-07  1.51E-04  0.00E+00  0.00E+00  4.07E-07  1.78E-04  1.23E-02  0.74081
   2092.    4.780  7.36E-08  3.22E-05  3.10E-07  1.36E-04  0.00E+00  0.00E+00  3.84E-07  1.68E-04  1.23E-02  0.66965
   2094.    4.776  1.17E-07  5.12E-05  1.81E-07  7.93E-05  0.00E+00  0.00E+00  2.98E-07  1.31E-04  1.23E-02  0.39395
   2096.    4.771  6.05E-08  2.66E-05  3.62E-07  1.59E-04  0.00E+00  0.00E+00  4.22E-07  1.85E-04  1.23E-02  0.79261
   2098.    4.766  5.20E-08  2.29E-05  3.78E-07  1.66E-04  0.00E+00  0.00E+00  4.30E-07  1.89E-04  1.23E-02  0.83298
   2100.    4.762  5.34E-08  2.35E-05  3.70E-07  1.63E-04  0.00E+00  0.00E+00  4.23E-07  1.86E-04  1.23E-02  0.82072
  iv         2105
1                                             RADIANCE(WATTS/CM2-STER-XXX)
0  FREQ   WAVLEN    PATH THERMAL      SURFACE EMISSION    SURFACE REFLECTED     TOTAL RADIANCE   INTEGRAL    TOTAL
  (CM-1) (MICRN)    (CM-1)   (MICRN)    (CM-1)   (MICRN)    (CM-1)   (MICRN)    (CM-1)   (MICRN)    (CM-1)   TRANS

   2102.    4.757  5.56E-08  2.46E-05  3.61E-07  1.60E-04  0.00E+00  0.00E+00  4.17E-07  1.84E-04  1.23E-02  0.80784
   2104.    4.753  5.36E-08  2.37E-05  3.60E-07  1.59E-04  0.00E+00  0.00E+00  4.14E-07  1.83E-04  1.23E-02  0.81125
   2106.    4.748  6.11E-08  2.71E-05  3.41E-07  1.51E-04  0.00E+00  0.00E+00  4.03E-07  1.79E-04  1.23E-02  0.77375
   2108.    4.744  6.41E-08  2.85E-05  3.32E-07  1.48E-04  0.00E+00  0.00E+00  3.97E-07  1.76E-04  1.23E-02  0.75895
   2110.    4.739  5.75E-08  2.56E-05  3.41E-07  1.52E-04  0.00E+00  0.00E+00  3.99E-07  1.78E-04  1.23E-02  0.78462
   2112.    4.735  6.19E-08  2.76E-05  3.28E-07  1.46E-04  0.00E+00  0.00E+00  3.90E-07  1.74E-04  1.23E-02  0.75824
   2114.    4.730  5.76E-08  2.58E-05  3.37E-07  1.51E-04  0.00E+00  0.00E+00  3.95E-07  1.76E-04  1.23E-02  0.78570
   2116.    4.726  5.64E-08  2.52E-05  3.34E-07  1.49E-04  0.00E+00  0.00E+00  3.90E-07  1.75E-04  1.23E-02  0.78276
   2118.    4.721  4.97E-08  2.23E-05  3.48E-07  1.56E-04  0.00E+00  0.00E+00  3.97E-07  1.78E-04  1.23E-02  0.82105
   2120.    4.717  5.26E-08  2.36E-05  3.37E-07  1.51E-04  0.00E+00  0.00E+00  3.90E-07  1.75E-04  1.23E-02  0.80168
   2122.    4.713  4.59E-08  2.07E-05  3.50E-07  1.58E-04  0.00E+00  0.00E+00  3.96E-07  1.78E-04  1.23E-02  0.83921
   2124.    4.708  4.57E-08  2.06E-05  3.47E-07  1.57E-04  0.00E+00  0.00E+00  3.93E-07  1.77E-04  1.23E-02  0.83674
   2126.    4.704  4.18E-08  1.89E-05  3.54E-07  1.60E-04  0.00E+00  0.00E+00  3.96E-07  1.79E-04  1.23E-02  0.85890
   2128.    4.699  5.78E-08  2.62E-05  3.12E-07  1.41E-04  0.00E+00  0.00E+00  3.69E-07  1.67E-04  1.23E-02  0.76169
   2130.    4.695  8.30E-08  3.77E-05  2.30E-07  1.04E-04  0.00E+00  0.00E+00  3.13E-07  1.42E-04  1.23E-02  0.56639
   2132.    4.690  3.82E-08  1.74E-05  3.54E-07  1.61E-04  0.00E+00  0.00E+00  3.92E-07  1.78E-04  1.23E-02  0.87769
   2134.    4.686  3.77E-08  1.71E-05  3.52E-07  1.60E-04  0.00E+00  0.00E+00  3.89E-07  1.77E-04  1.23E-02  0.87727
   2136.    4.682  3.74E-08  1.71E-05  3.49E-07  1.59E-04  0.00E+00  0.00E+00  3.87E-07  1.76E-04  1.23E-02  0.87774
   2138.    4.677  3.79E-08  1.73E-05  3.45E-07  1.58E-04  0.00E+00  0.00E+00  3.83E-07  1.75E-04  1.23E-02  0.87363
   2140.    4.673  3.72E-08  1.71E-05  3.44E-07  1.57E-04  0.00E+00  0.00E+00  3.81E-07  1.75E-04  1.23E-02  0.87611
   2142.    4.669  3.73E-08  1.71E-05  3.41E-07  1.56E-04  0.00E+00  0.00E+00  3.78E-07  1.74E-04  1.23E-02  0.87454
   2144.    4.664  3.73E-08  1.71E-05  3.38E-07  1.55E-04  0.00E+00  0.00E+00  3.75E-07  1.73E-04  1.23E-02  0.87363
   2146.    4.660  3.70E-08  1.70E-05  3.36E-07  1.55E-04  0.00E+00  0.00E+00  3.73E-07  1.72E-04  1.23E-02  0.87376
   2148.    4.655  3.77E-08  1.74E-05  3.32E-07  1.53E-04  0.00E+00  0.00E+00  3.69E-07  1.70E-04  1.23E-02  0.86870
   2150.    4.651  3.73E-08  1.72E-05  3.29E-07  1.52E-04  0.00E+00  0.00E+00  3.67E-07  1.70E-04  1.23E-02  0.86896
   2152.    4.647  3.78E-08  1.75E-05  3.26E-07  1.51E-04  0.00E+00  0.00E+00  3.63E-07  1.68E-04  1.23E-02  0.86457
   2154.    4.643  3.81E-08  1.77E-05  3.22E-07  1.49E-04  0.00E+00  0.00E+00  3.60E-07  1.67E-04  1.23E-02  0.86126
   2156.    4.638  3.82E-08  1.78E-05  3.19E-07  1.48E-04  0.00E+00  0.00E+00  3.57E-07  1.66E-04  1.23E-02  0.85884
   2158.    4.634  3.86E-08  1.80E-05  3.15E-07  1.47E-04  0.00E+00  0.00E+00  3.54E-07  1.65E-04  1.24E-02  0.85490
   2160.    4.630  3.85E-08  1.80E-05  3.13E-07  1.46E-04  0.00E+00  0.00E+00  3.51E-07  1.64E-04  1.24E-02  0.85373
   2162.    4.625  3.90E-08  1.82E-05  3.09E-07  1.44E-04  0.00E+00  0.00E+00  3.48E-07  1.63E-04  1.24E-02  0.84965
   2164.    4.621  4.04E-08  1.89E-05  3.04E-07  1.42E-04  0.00E+00  0.00E+00  3.44E-07  1.61E-04  1.24E-02  0.84041
   2166.    4.617  4.21E-08  1.97E-05  2.97E-07  1.40E-04  0.00E+00  0.00E+00  3.40E-07  1.59E-04  1.24E-02  0.82912
   2168.    4.613  3.97E-08  1.87E-05  2.99E-07  1.41E-04  0.00E+00  0.00E+00  3.39E-07  1.59E-04  1.24E-02  0.83995
   2170.    4.608  4.00E-08  1.88E-05  2.96E-07  1.39E-04  0.00E+00  0.00E+00  3.36E-07  1.58E-04  1.24E-02  0.83652
   2172.    4.604  4.02E-08  1.90E-05  2.93E-07  1.38E-04  0.00E+00  0.00E+00  3.33E-07  1.57E-04  1.24E-02  0.83324
   2174.    4.600  4.03E-08  1.91E-05  2.90E-07  1.37E-04  0.00E+00  0.00E+00  3.30E-07  1.56E-04  1.24E-02  0.83084
   2176.    4.596  4.05E-08  1.92E-05  2.87E-07  1.36E-04  0.00E+00  0.00E+00  3.27E-07  1.55E-04  1.24E-02  0.82780
   2178.    4.591  4.07E-08  1.93E-05  2.84E-07  1.35E-04  0.00E+00  0.00E+00  3.25E-07  1.54E-04  1.24E-02  0.82476
   2180.    4.587  4.09E-08  1.95E-05  2.81E-07  1.33E-04  0.00E+00  0.00E+00  3.22E-07  1.53E-04  1.24E-02  0.82161
   2182.    4.583  4.13E-08  1.97E-05  2.77E-07  1.32E-04  0.00E+00  0.00E+00  3.19E-07  1.52E-04  1.24E-02  0.81743
   2184.    4.579  4.17E-08  1.99E-05  2.74E-07  1.31E-04  0.00E+00  0.00E+00  3.16E-07  1.51E-04  1.24E-02  0.81335
   2186.    4.575  4.21E-08  2.01E-05  2.71E-07  1.29E-04  0.00E+00  0.00E+00  3.13E-07  1.49E-04  1.24E-02  0.80855
   2188.    4.570  4.25E-08  2.03E-05  2.67E-07  1.28E-04  0.00E+00  0.00E+00  3.10E-07  1.48E-04  1.24E-02  0.80427
   2190.    4.566  4.30E-08  2.06E-05  2.64E-07  1.26E-04  0.00E+00  0.00E+00  3.07E-07  1.47E-04  1.24E-02  0.79895
   2192.    4.562  4.35E-08  2.09E-05  2.60E-07  1.25E-04  0.00E+00  0.00E+00  3.04E-07  1.46E-04  1.24E-02  0.79383
   2194.    4.558  4.41E-08  2.12E-05  2.57E-07  1.24E-04  0.00E+00  0.00E+00  3.01E-07  1.45E-04  1.24E-02  0.78840
   2196.    4.554  4.47E-08  2.16E-05  2.53E-07  1.22E-04  0.00E+00  0.00E+00  2.98E-07  1.44E-04  1.24E-02  0.78212
   2198.    4.550  4.55E-08  2.20E-05  2.49E-07  1.20E-04  0.00E+00  0.00E+00  2.94E-07  1.42E-04  1.24E-02  0.77568
   2200.    4.545  4.64E-08  2.25E-05  2.45E-07  1.18E-04  0.00E+00  0.00E+00  2.91E-07  1.41E-04  1.24E-02  0.76748
0INTEGRATED ABSORPTION FROM    2 TO 2200 CM-1 =    441.10 CM-1
 AVERAGE TRANSMITTANCE =0.7993

0INTEGRATED RADIANCE =  1.236E-02 WATTS CM-2 STER-1
 MINIMUM RADIANCE    =  9.730E-10 WATTS CM-2 STER-1 (CM-1)-1 AT        2.0 CM-1
 MAXIMUM RADIANCE    =  1.481E-05 WATTS CM-2 STER-1 (CM-1)-1 AT      542.0 CM-1
 BOUNDARY TEMPERATURE =     299.70 K
 BOUNDARY EMISSIVITY =       0.971
0 CARD 5 *****    0


