*****  MODTRAN3 Version 1.3  12/1/95  *****
0 CARD 1  *****T   6    3    1    0    0    0    0    0    0    0    0    0   -1   0.000  -1.00
 co2mx co2rat ch4rat h2orat t_o3rat s_o3rat   1024.000       3.103030    
   0.0000000E+00  0.0000000E+00  0.0000000E+00  0.0000000E+00
0 CARD 2  *****    2    0    0    0    0    0     0.000     0.000     0.000     0.000     0.000
0 CARD 3  *****    20.000     0.000   180.000     0.000     0.000     0.000    0
0 CARD 4  *****       100      1500         2         2
0 PROGRAM WILL COMPUTE RADIANCE                
0 ATMOSPHERIC MODEL
          TEMPERATURE =    6     1976 U S STANDARD   
          WATER VAPOR =    6     1976 U S STANDARD   
          OZONE       =    6     1976 U S STANDARD   
                      M4 =     6 M5 =     6 M6 =     6 MDEF =     1
0 AEROSOL MODEL
          REGIME                  AEROSOL TYPE             PROFILE                  SEASON

          BOUNDARY LAYER (0-2 KM) RURAL                      5.0 KM VIS AT SEA LEVEL
          TROPOSPHERE  (2-10KM)   TROPOSPHERIC             TROPOSPHERIC             SPRING-SUMMER       
          STRATOSPHERE (10-30KM)  BACKGROUND STRATO        BACKGROUND STRATO        SPRING-SUMMER       
          UPPER ATMOS (30-100KM)  METEORIC DUST            NORMAL              
0 SLANT PATH TO SPACE
          H1    =     20.000 KM
          HMIN  =      0.000 KM
          ANGLE =    180.000 DEG
0 FREQUENCY RANGE
             IV1 =       100 CM-1  (    100.00 MICROMETERS)
             IV2 =      1500 CM-1  (      6.67 MICROMETERS)
             IDV =         2 CM-1
           IFWHM =         2 CM-1
1
  ATMOSPHERIC PROFILES

   I     Z       P       T        N2       CNTMSLF MOL SCAT     N-1     O3 (UV)  O2 (UV)
        (KM)    (MB)    (K)            (MOL/CM2 KM)   (-)       (-)  (ATM CM/KM) (ATM CM/KM)

   1     0.00 1013.000  288.2  8.243E-01 0.000E+00 9.475E-01 2.725E-04 0.000E+00 3.535E+04
   2     1.00  898.800  281.7  6.792E-01 0.000E+00 8.601E-01 2.474E-04 0.000E+00 3.079E+04
   3     2.00  795.000  275.2  5.568E-01 0.000E+00 7.788E-01 2.240E-04 0.000E+00 2.678E+04
   4     3.00  701.200  268.7  4.543E-01 0.000E+00 7.035E-01 2.023E-04 0.000E+00 2.327E+04
   5     4.00  616.600  262.2  3.690E-01 0.000E+00 6.340E-01 1.823E-04 0.000E+00 2.021E+04
   6     5.00  540.500  255.7  2.981E-01 0.000E+00 5.698E-01 1.639E-04 0.000E+00 1.753E+04
   7     6.00  472.200  249.2  2.396E-01 0.000E+00 5.108E-01 1.469E-04 0.000E+00 1.519E+04
   8     7.00  411.100  242.7  1.914E-01 0.000E+00 4.566E-01 1.313E-04 0.000E+00 1.315E+04
   9     8.00  356.500  236.2  1.520E-01 0.000E+00 4.069E-01 1.170E-04 0.000E+00 1.137E+04
  10     9.00  308.000  229.7  1.200E-01 0.000E+00 3.615E-01 1.040E-04 0.000E+00 9.815E+03
  11    10.00  265.000  223.3  9.396E-02 0.000E+00 3.199E-01 9.201E-05 0.000E+00 8.456E+03
  12    11.00  227.000  216.8  7.314E-02 0.000E+00 2.823E-01 8.118E-05 0.000E+00 7.276E+03
  13    12.00  194.000  216.7  5.347E-02 0.000E+00 2.413E-01 6.941E-05 0.000E+00 6.050E+03
  14    13.00  165.800  216.7  3.906E-02 0.000E+00 2.063E-01 5.932E-05 0.000E+00 5.045E+03
  15    14.00  141.700  216.7  2.853E-02 0.000E+00 1.763E-01 5.070E-05 0.000E+00 4.220E+03
  16    15.00  121.100  216.7  2.084E-02 0.000E+00 1.507E-01 4.333E-05 0.000E+00 3.540E+03
  17    16.00  103.500  216.7  1.522E-02 0.000E+00 1.288E-01 3.703E-05 0.000E+00 2.977E+03
  18    17.00   88.500  216.7  1.113E-02 0.000E+00 1.101E-01 3.166E-05 0.000E+00 2.510E+03
  19    18.00   75.650  216.7  8.131E-03 0.000E+00 9.411E-02 2.707E-05 0.000E+00 2.119E+03
  20    19.00   64.670  216.7  5.942E-03 0.000E+00 8.045E-02 2.314E-05 0.000E+00 1.792E+03
  21    20.00   55.290  216.7  4.343E-03 0.000E+00 6.878E-02 1.978E-05 0.000E+00 1.519E+03
  22    21.00   47.290  217.6  3.151E-03 0.000E+00 5.859E-02 1.685E-05 0.000E+00 1.283E+03
  23    22.00   40.470  218.6  2.287E-03 0.000E+00 4.991E-02 1.435E-05 0.000E+00 1.086E+03
  24    23.00   34.670  219.6  1.663E-03 0.000E+00 4.256E-02 1.224E-05 0.000E+00 9.203E+02
  25    24.00   29.720  220.6  1.211E-03 0.000E+00 3.632E-02 1.044E-05 0.000E+00 7.814E+02
  26    25.00   25.490  221.6  8.828E-04 0.000E+00 3.101E-02 8.918E-06 0.000E+00 6.643E+02
  27    30.00   11.970  226.5  1.863E-04 0.000E+00 1.425E-02 4.097E-06 0.000E+00 3.011E+02
  28    35.00    5.746  236.5  3.938E-05 0.000E+00 6.550E-03 1.884E-06 0.000E+00 1.375E+02
  29    40.00    2.871  250.4  8.771E-06 0.000E+00 3.091E-03 8.889E-07 0.000E+00 6.472E+01
  30    45.00    1.491  264.2  2.125E-06 0.000E+00 1.521E-03 4.375E-07 0.000E+00 3.182E+01
  31    50.00    0.798  270.7  5.795E-07 0.000E+00 7.945E-04 2.285E-07 0.000E+00 1.660E+01
  32    70.00    0.052  219.6  3.770E-09 0.000E+00 6.408E-05 1.843E-08 0.000E+00 1.338E+00
  33   100.00    0.000  195.1  1.795E-13 0.000E+00 4.422E-07 1.272E-10 0.000E+00 7.070E-03
1
  ATMOSPHERIC PROFILES

   I     Z       P       T      CNTMFRN     HNO3    AEROSOL 1 AEROSOL 2 AEROSOL 3 AEROSOL 4 AER1*RH   CIRRUS         RH
        (KM)    (MB)    (K)   MOL/CM2 KM ATM CM/KM   (-)       (-)       (-)       (-)       (-)       (-)      (PERCNT)

   1     0.00 1013.000  288.2  0.000E+00 0.000E+00 7.700E-01 0.000E+00 0.000E+00 0.000E+00 3.546E+00 0.000E+00 0.000E+00
   2     1.00  898.800  281.7  0.000E+00 0.000E+00 7.700E-01 0.000E+00 0.000E+00 0.000E+00 3.546E+00 0.000E+00 0.000E+00
   3     2.00  795.000  275.2  0.000E+00 0.000E+00 6.210E-02 0.000E+00 0.000E+00 0.000E+00 2.860E-01 0.000E+00 0.000E+00
   4     3.00  701.200  268.7  0.000E+00 0.000E+00 0.000E+00 3.460E-02 0.000E+00 0.000E+00 0.000E+00 0.000E+00 0.000E+00
   5     4.00  616.600  262.2  0.000E+00 0.000E+00 0.000E+00 1.850E-02 0.000E+00 0.000E+00 0.000E+00 0.000E+00 0.000E+00
   6     5.00  540.500  255.7  0.000E+00 0.000E+00 0.000E+00 9.310E-03 0.000E+00 0.000E+00 0.000E+00 0.000E+00 0.000E+00
   7     6.00  472.200  249.2  0.000E+00 0.000E+00 0.000E+00 7.710E-03 0.000E+00 0.000E+00 0.000E+00 0.000E+00 0.000E+00
   8     7.00  411.100  242.7  0.000E+00 0.000E+00 0.000E+00 6.230E-03 0.000E+00 0.000E+00 0.000E+00 0.000E+00 0.000E+00
   9     8.00  356.500  236.2  0.000E+00 0.000E+00 0.000E+00 3.370E-03 0.000E+00 0.000E+00 0.000E+00 0.000E+00 0.000E+00
  10     9.00  308.000  229.7  0.000E+00 0.000E+00 0.000E+00 1.820E-03 0.000E+00 0.000E+00 0.000E+00 0.000E+00 0.000E+00
  11    10.00  265.000  223.3  0.000E+00 0.000E+00 0.000E+00 1.140E-03 0.000E+00 0.000E+00 0.000E+00 0.000E+00 0.000E+00
  12    11.00  227.000  216.8  0.000E+00 0.000E+00 0.000E+00 0.000E+00 7.990E-04 0.000E+00 0.000E+00 0.000E+00 0.000E+00
  13    12.00  194.000  216.7  0.000E+00 0.000E+00 0.000E+00 0.000E+00 6.410E-04 0.000E+00 0.000E+00 0.000E+00 0.000E+00
  14    13.00  165.800  216.7  0.000E+00 0.000E+00 0.000E+00 0.000E+00 5.170E-04 0.000E+00 0.000E+00 0.000E+00 0.000E+00
  15    14.00  141.700  216.7  0.000E+00 0.000E+00 0.000E+00 0.000E+00 4.420E-04 0.000E+00 0.000E+00 0.000E+00 0.000E+00
  16    15.00  121.100  216.7  0.000E+00 0.000E+00 0.000E+00 0.000E+00 3.950E-04 0.000E+00 0.000E+00 0.000E+00 0.000E+00
  17    16.00  103.500  216.7  0.000E+00 0.000E+00 0.000E+00 0.000E+00 3.820E-04 0.000E+00 0.000E+00 0.000E+00 0.000E+00
  18    17.00   88.500  216.7  0.000E+00 0.000E+00 0.000E+00 0.000E+00 4.250E-04 0.000E+00 0.000E+00 0.000E+00 0.000E+00
  19    18.00   75.650  216.7  0.000E+00 0.000E+00 0.000E+00 0.000E+00 5.200E-04 0.000E+00 0.000E+00 0.000E+00 0.000E+00
  20    19.00   64.670  216.7  0.000E+00 0.000E+00 0.000E+00 0.000E+00 5.810E-04 0.000E+00 0.000E+00 0.000E+00 0.000E+00
  21    20.00   55.290  216.7  0.000E+00 0.000E+00 0.000E+00 0.000E+00 5.890E-04 0.000E+00 0.000E+00 0.000E+00 0.000E+00
  22    21.00   47.290  217.6  0.000E+00 0.000E+00 0.000E+00 0.000E+00 5.020E-04 0.000E+00 0.000E+00 0.000E+00 0.000E+00
  23    22.00   40.470  218.6  0.000E+00 0.000E+00 0.000E+00 0.000E+00 4.200E-04 0.000E+00 0.000E+00 0.000E+00 0.000E+00
  24    23.00   34.670  219.6  0.000E+00 0.000E+00 0.000E+00 0.000E+00 3.000E-04 0.000E+00 0.000E+00 0.000E+00 0.000E+00
  25    24.00   29.720  220.6  0.000E+00 0.000E+00 0.000E+00 0.000E+00 1.980E-04 0.000E+00 0.000E+00 0.000E+00 0.000E+00
  26    25.00   25.490  221.6  0.000E+00 0.000E+00 0.000E+00 0.000E+00 1.310E-04 0.000E+00 0.000E+00 0.000E+00 0.000E+00
  27    30.00   11.970  226.5  0.000E+00 0.000E+00 0.000E+00 0.000E+00 3.320E-05 0.000E+00 0.000E+00 0.000E+00 0.000E+00
  28    35.00    5.746  236.5  0.000E+00 0.000E+00 0.000E+00 0.000E+00 0.000E+00 1.640E-05 0.000E+00 0.000E+00 0.000E+00
  29    40.00    2.871  250.4  0.000E+00 0.000E+00 0.000E+00 0.000E+00 0.000E+00 7.990E-06 0.000E+00 0.000E+00 0.000E+00
  30    45.00    1.491  264.2  0.000E+00 0.000E+00 0.000E+00 0.000E+00 0.000E+00 4.010E-06 0.000E+00 0.000E+00 0.000E+00
  31    50.00    0.798  270.7  0.000E+00 0.000E+00 0.000E+00 0.000E+00 0.000E+00 2.100E-06 0.000E+00 0.000E+00 0.000E+00
  32    70.00    0.052  219.6  0.000E+00 0.000E+00 0.000E+00 0.000E+00 0.000E+00 1.600E-07 0.000E+00 0.000E+00 0.000E+00
  33   100.00    0.000  195.1  0.000E+00 0.000E+00 0.000E+00 0.000E+00 0.000E+00 9.310E-10 0.000E+00 0.000E+00 0.000E+00
1
  ATMOSPHERIC PROFILES

   I      Z       P       T      H2O      O3       CO2      CO       CH4      N2O      O2       NH3      NO       NO2      SO2
         (KM)    (MB)    (K)  (                                    MBAR                                                       )
   1     0.00 1013.000  288.2  0.00E+00 0.00E+00 1.02E+03 1.50E-01 0.00E+00 0.00E+00 2.09E+05 0.00E+00 0.00E+00 0.00E+00 0.00E+00
   2     1.00  898.800  281.7  0.00E+00 0.00E+00 1.02E+03 1.45E-01 0.00E+00 0.00E+00 2.09E+05 0.00E+00 0.00E+00 0.00E+00 0.00E+00
   3     2.00  795.000  275.2  0.00E+00 0.00E+00 1.02E+03 1.40E-01 0.00E+00 0.00E+00 2.09E+05 0.00E+00 0.00E+00 0.00E+00 0.00E+00
   4     3.00  701.200  268.7  0.00E+00 0.00E+00 1.02E+03 1.35E-01 0.00E+00 0.00E+00 2.09E+05 0.00E+00 0.00E+00 0.00E+00 0.00E+00
   5     4.00  616.600  262.2  0.00E+00 0.00E+00 1.02E+03 1.31E-01 0.00E+00 0.00E+00 2.09E+05 0.00E+00 0.00E+00 0.00E+00 0.00E+00
   6     5.00  540.500  255.7  0.00E+00 0.00E+00 1.02E+03 1.30E-01 0.00E+00 0.00E+00 2.09E+05 0.00E+00 0.00E+00 0.00E+00 0.00E+00
   7     6.00  472.200  249.2  0.00E+00 0.00E+00 1.02E+03 1.29E-01 0.00E+00 0.00E+00 2.09E+05 0.00E+00 0.00E+00 0.00E+00 0.00E+00
   8     7.00  411.100  242.7  0.00E+00 0.00E+00 1.02E+03 1.25E-01 0.00E+00 0.00E+00 2.09E+05 0.00E+00 0.00E+00 0.00E+00 0.00E+00
   9     8.00  356.500  236.2  0.00E+00 0.00E+00 1.02E+03 1.19E-01 0.00E+00 0.00E+00 2.09E+05 0.00E+00 0.00E+00 0.00E+00 0.00E+00
  10     9.00  308.000  229.7  0.00E+00 0.00E+00 1.02E+03 1.09E-01 0.00E+00 0.00E+00 2.09E+05 0.00E+00 0.00E+00 0.00E+00 0.00E+00
  11    10.00  265.000  223.3  0.00E+00 0.00E+00 1.02E+03 9.96E-02 0.00E+00 0.00E+00 2.09E+05 0.00E+00 0.00E+00 0.00E+00 0.00E+00
  12    11.00  227.000  216.8  0.00E+00 0.00E+00 1.02E+03 8.96E-02 0.00E+00 0.00E+00 2.09E+05 0.00E+00 0.00E+00 0.00E+00 0.00E+00
  13    12.00  194.000  216.7  0.00E+00 0.00E+00 1.02E+03 7.81E-02 0.00E+00 0.00E+00 2.09E+05 0.00E+00 0.00E+00 0.00E+00 0.00E+00
  14    13.00  165.800  216.7  0.00E+00 0.00E+00 1.02E+03 6.37E-02 0.00E+00 0.00E+00 2.09E+05 0.00E+00 0.00E+00 0.00E+00 0.00E+00
  15    14.00  141.700  216.7  0.00E+00 0.00E+00 1.02E+03 5.03E-02 0.00E+00 0.00E+00 2.09E+05 0.00E+00 0.00E+00 0.00E+00 0.00E+00
  16    15.00  121.100  216.7  0.00E+00 0.00E+00 1.02E+03 3.94E-02 0.00E+00 0.00E+00 2.09E+05 0.00E+00 0.00E+00 0.00E+00 0.00E+00
  17    16.00  103.500  216.7  0.00E+00 0.00E+00 1.02E+03 3.07E-02 0.00E+00 0.00E+00 2.09E+05 0.00E+00 0.00E+00 0.00E+00 0.00E+00
  18    17.00   88.500  216.7  0.00E+00 0.00E+00 1.02E+03 2.49E-02 0.00E+00 0.00E+00 2.09E+05 0.00E+00 0.00E+00 0.00E+00 0.00E+00
  19    18.00   75.650  216.7  0.00E+00 0.00E+00 1.02E+03 1.97E-02 0.00E+00 0.00E+00 2.09E+05 0.00E+00 0.00E+00 0.00E+00 0.00E+00
  20    19.00   64.670  216.7  0.00E+00 0.00E+00 1.02E+03 1.55E-02 0.00E+00 0.00E+00 2.09E+05 0.00E+00 0.00E+00 0.00E+00 0.00E+00
  21    20.00   55.290  216.7  0.00E+00 0.00E+00 1.02E+03 1.33E-02 0.00E+00 0.00E+00 2.09E+05 0.00E+00 0.00E+00 0.00E+00 0.00E+00
  22    21.00   47.290  217.6  0.00E+00 0.00E+00 1.02E+03 1.23E-02 0.00E+00 0.00E+00 2.09E+05 0.00E+00 0.00E+00 0.00E+00 0.00E+00
  23    22.00   40.470  218.6  0.00E+00 0.00E+00 1.02E+03 1.23E-02 0.00E+00 0.00E+00 2.09E+05 0.00E+00 0.00E+00 0.00E+00 0.00E+00
  24    23.00   34.670  219.6  0.00E+00 0.00E+00 1.02E+03 1.31E-02 0.00E+00 0.00E+00 2.09E+05 0.00E+00 0.00E+00 0.00E+00 0.00E+00
  25    24.00   29.720  220.6  0.00E+00 0.00E+00 1.02E+03 1.40E-02 0.00E+00 0.00E+00 2.09E+05 0.00E+00 0.00E+00 0.00E+00 0.00E+00
  26    25.00   25.490  221.6  0.00E+00 0.00E+00 1.02E+03 1.50E-02 0.00E+00 0.00E+00 2.09E+05 0.00E+00 0.00E+00 0.00E+00 0.00E+00
  27    30.00   11.970  226.5  0.00E+00 0.00E+00 1.02E+03 1.71E-02 0.00E+00 0.00E+00 2.09E+05 0.00E+00 0.00E+00 0.00E+00 0.00E+00
  28    35.00    5.746  236.5  0.00E+00 0.00E+00 1.02E+03 2.01E-02 0.00E+00 0.00E+00 2.09E+05 0.00E+00 0.00E+00 0.00E+00 0.00E+00
  29    40.00    2.871  250.4  0.00E+00 0.00E+00 1.02E+03 2.50E-02 0.00E+00 0.00E+00 2.09E+05 0.00E+00 0.00E+00 0.00E+00 0.00E+00
  30    45.00    1.491  264.2  0.00E+00 0.00E+00 1.02E+03 3.24E-02 0.00E+00 0.00E+00 2.09E+05 0.00E+00 0.00E+00 0.00E+00 0.00E+00
  31    50.00    0.798  270.7  0.00E+00 0.00E+00 1.02E+03 4.60E-02 0.00E+00 0.00E+00 2.09E+05 0.00E+00 0.00E+00 0.00E+00 0.00E+00
  32    70.00    0.052  219.6  0.00E+00 0.00E+00 1.02E+03 3.06E-01 0.00E+00 0.00E+00 2.09E+05 0.00E+00 0.00E+00 0.00E+00 0.00E+00
  33   100.00    0.000  195.1  0.00E+00 0.00E+00 6.05E+02 1.69E+01 0.00E+00 0.00E+00 1.60E+05 0.00E+00 0.00E+00 0.00E+00 0.00E+00
1
  ATMOSPHERIC PROFILES

   I      Z       P       T     CFC-11   CFC-12   CFC-13   CFC-14   CFC-22   CFC-113  CFC-114  CFC-115  CLONO2    HNO4    CHCL2F 
                                 CCL4     N2O5  
         (KM)    (MB)    (K)  (                                 ATM CM/KM                                                     )
   1     0.00 1013.000  288.2  1.33E-05 2.27E-05 9.47E-14 9.47E-14 5.68E-06 1.80E-06 1.14E-06 9.47E-14 5.44E-07 4.11E-08 9.47E-14
                               1.23E-05 2.29E-11
   2     1.00  898.800  281.7  1.20E-05 2.06E-05 8.60E-14 8.60E-14 5.15E-06 1.63E-06 1.03E-06 8.60E-14 4.41E-07 1.84E-07 8.60E-14
                               1.12E-05 8.20E-11
   3     2.00  795.000  275.2  1.09E-05 1.87E-05 7.78E-14 7.78E-14 4.66E-06 1.48E-06 9.34E-07 7.78E-14 3.51E-07 2.99E-07 7.78E-14
                               1.01E-05 1.30E-10
   4     3.00  701.200  268.7  9.84E-06 1.69E-05 7.03E-14 7.03E-14 4.21E-06 1.34E-06 8.44E-07 7.03E-14 2.73E-07 3.89E-07 7.03E-14
                               9.14E-06 1.67E-10
   5     4.00  616.600  262.2  8.87E-06 1.52E-05 6.34E-14 6.34E-14 3.79E-06 1.20E-06 7.60E-07 6.34E-14 2.07E-07 4.59E-07 6.34E-14
                               8.24E-06 1.96E-10
   6     5.00  540.500  255.7  7.97E-06 1.37E-05 5.69E-14 5.69E-14 3.40E-06 1.08E-06 6.83E-07 5.69E-14 1.57E-07 1.03E-06 5.69E-14
                               7.39E-06 2.05E-10
   7     6.00  472.200  249.2  7.15E-06 1.23E-05 5.10E-14 5.10E-14 3.05E-06 9.70E-07 6.13E-07 5.10E-14 1.15E-07 1.48E-06 5.10E-14
                               6.61E-06 2.11E-10
   8     7.00  411.100  242.7  6.39E-06 1.10E-05 4.56E-14 4.56E-14 2.73E-06 8.67E-07 5.48E-07 4.56E-14 7.96E-08 1.82E-06 4.56E-14
                               5.90E-06 2.12E-10
   9     8.00  356.500  236.2  5.69E-06 9.76E-06 4.07E-14 4.07E-14 2.43E-06 7.73E-07 4.88E-07 4.07E-14 5.04E-08 2.07E-06 4.07E-14
                               5.25E-06 2.10E-10
  10     9.00  308.000  229.7  5.05E-06 8.66E-06 3.61E-14 3.61E-14 2.15E-06 6.86E-07 4.33E-07 3.61E-14 4.36E-08 1.77E-06 3.61E-14
                               4.66E-06 2.08E-10
  11    10.00  265.000  223.3  4.46E-06 7.66E-06 3.20E-14 3.20E-14 1.91E-06 6.06E-07 3.84E-07 3.20E-14 3.76E-08 1.51E-06 3.20E-14
                               4.12E-06 2.03E-10
  12    11.00  227.000  216.8  3.93E-06 6.75E-06 2.82E-14 2.82E-14 1.68E-06 5.34E-07 3.38E-07 2.82E-14 3.22E-08 1.28E-06 2.82E-14
                               3.64E-06 1.97E-10
  13    12.00  194.000  216.7  3.35E-06 5.76E-06 2.41E-14 2.41E-14 1.44E-06 4.56E-07 2.89E-07 2.41E-14 2.68E-08 1.05E-06 2.41E-14
                               3.11E-06 1.83E-10
  14    13.00  165.800  216.7  2.78E-06 4.85E-06 2.06E-14 2.06E-14 1.21E-06 3.82E-07 2.45E-07 2.06E-14 1.65E-07 1.17E-06 2.06E-14
                               2.58E-06 9.08E-09
  15    14.00  141.700  216.7  2.31E-06 4.09E-06 1.76E-14 1.76E-14 1.03E-06 3.21E-07 2.07E-07 1.76E-14 2.63E-07 1.22E-06 1.76E-14
                               2.13E-06 1.54E-08
  16    15.00  121.100  216.7  1.91E-06 3.44E-06 1.51E-14 1.51E-14 8.70E-07 2.69E-07 1.75E-07 1.51E-14 3.28E-07 1.24E-06 1.51E-14
                               1.76E-06 1.97E-08
  17    16.00  103.500  216.7  1.58E-06 2.90E-06 1.29E-14 1.29E-14 7.36E-07 2.25E-07 1.48E-07 1.29E-14 3.69E-07 1.22E-06 1.29E-14
                               1.45E-06 2.24E-08
  18    17.00   88.500  216.7  1.24E-06 2.36E-06 1.10E-14 1.10E-14 6.12E-07 1.82E-07 1.23E-07 1.10E-14 1.12E-06 1.57E-06 1.10E-14
                               1.12E-06 9.66E-08
  19    18.00   75.650  216.7  9.56E-07 1.92E-06 9.40E-15 9.40E-15 5.08E-07 1.46E-07 1.02E-07 9.40E-15 1.64E-06 1.79E-06 9.40E-15
                               8.52E-07 1.49E-07
  20    19.00   64.670  216.7  7.31E-07 1.56E-06 8.04E-15 8.04E-15 4.22E-07 1.17E-07 8.47E-08 8.04E-15 1.99E-06 1.91E-06 8.04E-15
                               6.38E-07 1.84E-07
  21    20.00   55.290  216.7  5.51E-07 1.26E-06 6.87E-15 6.87E-15 3.50E-07 9.35E-08 7.01E-08 6.87E-15 2.20E-06 1.96E-06 6.87E-15
                               4.69E-07 2.06E-07
  22    21.00   47.290  217.6  4.02E-07 1.00E-06 5.85E-15 5.85E-15 2.86E-07 7.25E-08 5.71E-08 5.85E-15 2.69E-06 2.06E-06 5.85E-15
                               3.35E-07 2.43E-07
  23    22.00   40.470  218.6  2.85E-07 7.88E-07 4.99E-15 4.99E-15 2.34E-07 5.57E-08 4.64E-08 4.99E-15 2.99E-06 2.09E-06 4.99E-15
                               2.30E-07 2.64E-07
  24    23.00   34.670  219.6  1.94E-07 6.17E-07 4.25E-15 4.25E-15 1.91E-07 4.22E-08 3.77E-08 4.25E-15 3.15E-06 2.06E-06 4.25E-15
                               1.49E-07 2.75E-07
  25    24.00   29.720  220.6  1.23E-07 4.79E-07 3.63E-15 3.63E-15 1.56E-07 3.16E-08 3.06E-08 3.63E-15 3.19E-06 2.00E-06 3.63E-15
                               8.71E-08 2.76E-07
  26    25.00   25.490  221.6  8.45E-08 3.68E-07 3.10E-15 3.10E-15 1.27E-07 2.36E-08 2.46E-08 3.10E-15 3.01E-06 1.80E-06 3.10E-15
                               5.84E-08 2.39E-07
  27    30.00   11.970  226.5  5.56E-09 8.38E-08 1.42E-15 1.42E-15 4.31E-08 4.15E-09 8.02E-09 1.42E-15 1.62E-06 7.26E-07 1.42E-15
                               2.50E-09 7.86E-08
  28    35.00    5.746  236.5  1.30E-10 1.40E-08 6.55E-16 6.55E-16 1.35E-08 4.69E-10 2.39E-09 6.55E-16 3.43E-07 9.61E-08 6.55E-16
                               2.59E-11 7.08E-09
  29    40.00    2.871  250.4  5.71E-13 1.88E-09 3.09E-16 3.09E-16 4.29E-09 3.80E-11 7.17E-10 3.09E-16 1.32E-08 3.08E-09 3.09E-16
                               1.22E-14 6.58E-11
  30    45.00    1.491  264.2  1.40E-14 3.24E-10 1.52E-16 1.52E-16 1.58E-09 4.89E-12 2.46E-10 1.52E-16 2.55E-10 1.33E-10 1.52E-16
                               8.47E-17 5.99E-13
  31    50.00    0.798  270.7  4.74E-16 6.76E-11 7.94E-17 7.94E-17 6.97E-10 7.86E-13 9.92E-11 7.94E-17 3.71E-12 6.06E-12 7.94E-17
                               8.68E-19 4.99E-15
  32    70.00    0.052  219.6  3.26E-21 2.50E-13 6.40E-18 6.40E-18 4.60E-11 1.13E-15 3.75E-12 6.40E-18 4.63E-19 2.06E-16 6.40E-18
                               6.32E-26 5.25E-23
  33   100.00    0.000  195.1  1.37E-30 1.10E-18 4.42E-20 4.42E-20 7.91E-14 5.79E-22 9.41E-16 4.42E-20 3.57E-35 1.47E-31 4.42E-20
                               2.25E-38 0.00E+00


 CASE 3A: GIVEN H1,H2=SPACE,ANGLE



 TANGENT PATH WITH H1 =     20.000 AND ANGLE =    180.000 INTERSECTS THE EARTH

          H2 HAS BEEN RESET TO 0.0 AND LEN TO 0



 SLANT PATH PARAMETERS IN STANDARD FORM

          H1      =     20.000 KM
          H2      =      0.000 KM
          ANGLE   =    180.000 DEG
          PHI     =      0.000 DEG
          HMIN    =      0.000 KM
          LEN     =          0
1CALCULATION OF THE REFRACTED PATH THROUGH THE ATMOSPHERE


  I       ALTITUDE        THETA  DRANGE    RANGE    DBETA     BETA     PHI     DBEND  BENDING    PBAR    TBAR   RHOBAR
      FROM       TO
      (KM)      (KM)      (DEG)    (KM)     (KM)    (DEG)    (DEG)    (DEG)    (DEG)    (DEG)    (MB)    (K)  (GM CM-3)

          H2 TO H1

  1    0.000    1.000    0.000    1.000    1.000    0.000    0.000  180.000    0.000    0.000  955.683  284.99 1.17E-03
  2    1.000    2.000    0.000    1.000    2.000    0.000    0.000  180.000    0.000    0.000  846.698  278.49 1.06E-03
  3    2.000    3.000    0.000    1.000    3.000    0.000    0.000  180.000    0.000    0.000  747.913  271.99 9.57E-04
  4    3.000    4.000    0.000    1.000    4.000    0.000    0.000  180.000    0.000    0.000  658.727  265.49 8.63E-04
  5    4.000    5.000    0.000    1.000    5.000    0.000    0.000  180.000    0.000    0.000  578.391  258.99 7.77E-04
  6    5.000    6.000    0.000    1.000    6.000    0.000    0.000  180.000    0.000    0.000  506.204  252.50 6.98E-04
  7    6.000    7.000    0.000    1.000    7.000    0.000    0.000  180.000    0.000    0.000  441.515  246.00 6.24E-04
  8    7.000    8.000    0.000    1.000    8.000    0.000    0.000  180.000    0.000    0.000  383.677  239.50 5.57E-04
  9    8.000    9.000    0.000    1.000    9.000    0.000    0.000  180.000    0.000    0.000  332.137  233.00 4.96E-04
 10    9.000   10.000    0.000    1.000   10.000    0.000    0.000  180.000    0.000    0.000  286.399  226.55 4.40E-04
 11   10.000   11.000    0.000    1.000   11.000    0.000    0.000  180.000    0.000    0.000  245.907  220.10 3.89E-04
 12   11.000   12.000    0.000    1.000   12.000    0.000    0.000  180.000    0.000    0.000  210.499  216.75 3.38E-04
 13   12.000   13.000    0.000    1.000   13.000    0.000    0.000  180.000    0.000    0.000  179.900  216.70 2.89E-04
 14   13.000   14.000    0.000    1.000   14.000    0.000    0.000  180.000    0.000    0.000  153.750  216.70 2.47E-04
 15   14.000   15.000    0.000    1.000   15.000    0.000    0.000  180.000    0.000    0.000  131.400  216.70 2.11E-04
 16   15.000   16.000    0.000    1.000   16.000    0.000    0.000  180.000    0.000    0.000  112.300  216.70 1.80E-04
 17   16.000   17.000    0.000    1.000   17.000    0.000    0.000  180.000    0.000    0.000   96.000  216.70 1.54E-04
 18   17.000   18.000    0.000    1.000   18.000    0.000    0.000  180.000    0.000    0.000   82.075  216.70 1.32E-04
 19   18.000   19.000    0.000    1.000   19.000    0.000    0.000  180.000    0.000    0.000   70.160  216.70 1.13E-04
 20   19.000   20.000    0.000    1.000   20.000    0.000    0.000  180.000    0.000    0.000   59.980  216.70 9.62E-05




1CUMULATIVE ABSORBER AMOUNTS FOR THE PATH FROM H1 TO Z

  J     Z        TBAR     HNO3        O3 UV      CNTMSLF1   CNTMSLF2    CNTMFRN      O2
       (KM)       (K)   (ATM CM)    (ATM CM)    (MOL CM-2)  (MOL CM-2)  (MOL CM-2)(MOL CM-2)

  1   19.000   216.70   0.000E+00   0.000E+00   0.000E+00   0.000E+00   0.000E+00   1.652E+03
  2   18.000   216.70   0.000E+00   0.000E+00   0.000E+00   0.000E+00   0.000E+00   3.603E+03
  3   17.000   216.70   0.000E+00   0.000E+00   0.000E+00   0.000E+00   0.000E+00   5.912E+03
  4   16.000   216.70   0.000E+00   0.000E+00   0.000E+00   0.000E+00   0.000E+00   8.648E+03
  5   15.000   216.70   0.000E+00   0.000E+00   0.000E+00   0.000E+00   0.000E+00   1.190E+04
  6   14.000   216.70   0.000E+00   0.000E+00   0.000E+00   0.000E+00   0.000E+00   1.577E+04
  7   13.000   216.70   0.000E+00   0.000E+00   0.000E+00   0.000E+00   0.000E+00   2.039E+04
  8   12.000   216.70   0.000E+00   0.000E+00   0.000E+00   0.000E+00   0.000E+00   2.592E+04
  9   11.000   216.75   0.000E+00   0.000E+00   0.000E+00   0.000E+00   0.000E+00   3.257E+04
 10   10.000   220.10   0.000E+00   0.000E+00   0.000E+00   0.000E+00   0.000E+00   4.042E+04
 11    9.000   226.55   0.000E+00   0.000E+00   0.000E+00   0.000E+00   0.000E+00   4.954E+04
 12    8.000   233.00   0.000E+00   0.000E+00   0.000E+00   0.000E+00   0.000E+00   6.011E+04
 13    7.000   239.50   0.000E+00   0.000E+00   0.000E+00   0.000E+00   0.000E+00   7.235E+04
 14    6.000   246.00   0.000E+00   0.000E+00   0.000E+00   0.000E+00   0.000E+00   8.649E+04
 15    5.000   252.50   0.000E+00   0.000E+00   0.000E+00   0.000E+00   0.000E+00   1.028E+05
 16    4.000   258.99   0.000E+00   0.000E+00   0.000E+00   0.000E+00   0.000E+00   1.217E+05
 17    3.000   265.49   0.000E+00   0.000E+00   0.000E+00   0.000E+00   0.000E+00   1.434E+05
 18    2.000   271.99   0.000E+00   0.000E+00   0.000E+00   0.000E+00   0.000E+00   1.684E+05
 19    1.000   278.49   0.000E+00   0.000E+00   0.000E+00   0.000E+00   0.000E+00   1.971E+05
 20    0.000   284.99   0.000E+00   0.000E+00   0.000E+00   0.000E+00   0.000E+00   2.301E+05



1 J     Z       N2 CONT    MOL SCAT       AER 1       AER 2       AER 3       AER 4       CIRRUS
       (KM)

  1   19.000   5.101E-03   7.446E-02   0.000E+00   0.000E+00   5.850E-04   0.000E+00   0.000E+00
  2   18.000   1.208E-02   1.616E-01   0.000E+00   0.000E+00   1.136E-03   0.000E+00   0.000E+00
  3   17.000   2.163E-02   2.635E-01   0.000E+00   0.000E+00   1.608E-03   0.000E+00   0.000E+00
  4   16.000   3.470E-02   3.826E-01   0.000E+00   0.000E+00   2.012E-03   0.000E+00   0.000E+00
  5   15.000   5.258E-02   5.221E-01   0.000E+00   0.000E+00   2.400E-03   0.000E+00   0.000E+00
  6   14.000   7.706E-02   6.852E-01   0.000E+00   0.000E+00   2.818E-03   0.000E+00   0.000E+00
  7   13.000   1.106E-01   8.761E-01   0.000E+00   0.000E+00   3.297E-03   0.000E+00   0.000E+00
  8   12.000   1.565E-01   1.099E+00   0.000E+00   0.000E+00   3.873E-03   0.000E+00   0.000E+00
  9   11.000   2.193E-01   1.361E+00   0.000E+00   0.000E+00   4.590E-03   0.000E+00   0.000E+00
 10   10.000   3.024E-01   1.661E+00   0.000E+00   5.700E-04   4.990E-03   0.000E+00   0.000E+00
 11    9.000   4.088E-01   2.002E+00   0.000E+00   2.024E-03   4.990E-03   0.000E+00   0.000E+00
 12    8.000   5.441E-01   2.385E+00   0.000E+00   4.540E-03   4.990E-03   0.000E+00   0.000E+00
 13    7.000   7.151E-01   2.817E+00   0.000E+00   9.194E-03   4.990E-03   0.000E+00   0.000E+00
 14    6.000   9.297E-01   3.300E+00   0.000E+00   1.614E-02   4.990E-03   0.000E+00   0.000E+00
 15    5.000   1.197E+00   3.840E+00   0.000E+00   2.462E-02   4.990E-03   0.000E+00   0.000E+00
 16    4.000   1.530E+00   4.441E+00   0.000E+00   3.801E-02   4.990E-03   0.000E+00   0.000E+00
 17    3.000   1.940E+00   5.109E+00   0.000E+00   6.372E-02   4.990E-03   0.000E+00   0.000E+00
 18    2.000   2.444E+00   5.850E+00   3.105E-02   8.102E-02   4.990E-03   0.000E+00   0.000E+00
 19    1.000   3.060E+00   6.668E+00   3.122E-01   8.102E-02   4.990E-03   0.000E+00   0.000E+00
 20    0.000   3.809E+00   7.571E+00   1.082E+00   8.102E-02   4.990E-03   0.000E+00   0.000E+00



1  J    Z       H2O       O3        CO2       CO        CH4       N2O       O2        NH3       NO        NO2       SO2
      (KM)    (                                                      ATM CM                                             )

   1   19.00  0.00E+00  0.00E+00  7.62E+00  1.07E-04  0.00E+00  0.00E+00  1.56E+03  0.00E+00  0.00E+00  0.00E+00  0.00E+00
   2   18.00  0.00E+00  0.00E+00  1.65E+01  2.60E-04  0.00E+00  0.00E+00  3.37E+03  0.00E+00  0.00E+00  0.00E+00  0.00E+00
   3   17.00  0.00E+00  0.00E+00  2.70E+01  4.86E-04  0.00E+00  0.00E+00  5.50E+03  0.00E+00  0.00E+00  0.00E+00  0.00E+00
   4   16.00  0.00E+00  0.00E+00  3.92E+01  8.17E-04  0.00E+00  0.00E+00  7.99E+03  0.00E+00  0.00E+00  0.00E+00  0.00E+00
   5   15.00  0.00E+00  0.00E+00  5.34E+01  1.30E-03  0.00E+00  0.00E+00  1.09E+04  0.00E+00  0.00E+00  0.00E+00  0.00E+00
   6   14.00  0.00E+00  0.00E+00  7.01E+01  2.03E-03  0.00E+00  0.00E+00  1.43E+04  0.00E+00  0.00E+00  0.00E+00  0.00E+00
   7   13.00  0.00E+00  0.00E+00  8.96E+01  3.12E-03  0.00E+00  0.00E+00  1.83E+04  0.00E+00  0.00E+00  0.00E+00  0.00E+00
   8   12.00  0.00E+00  0.00E+00  1.13E+02  4.70E-03  0.00E+00  0.00E+00  2.30E+04  0.00E+00  0.00E+00  0.00E+00  0.00E+00
   9   11.00  0.00E+00  0.00E+00  1.39E+02  6.89E-03  0.00E+00  0.00E+00  2.84E+04  0.00E+00  0.00E+00  0.00E+00  0.00E+00
  10   10.00  0.00E+00  0.00E+00  1.70E+02  9.74E-03  0.00E+00  0.00E+00  3.47E+04  0.00E+00  0.00E+00  0.00E+00  0.00E+00
  11    9.00  0.00E+00  0.00E+00  2.05E+02  1.33E-02  0.00E+00  0.00E+00  4.18E+04  0.00E+00  0.00E+00  0.00E+00  0.00E+00
  12    8.00  0.00E+00  0.00E+00  2.44E+02  1.77E-02  0.00E+00  0.00E+00  4.98E+04  0.00E+00  0.00E+00  0.00E+00  0.00E+00
  13    7.00  0.00E+00  0.00E+00  2.88E+02  2.29E-02  0.00E+00  0.00E+00  5.88E+04  0.00E+00  0.00E+00  0.00E+00  0.00E+00
  14    6.00  0.00E+00  0.00E+00  3.38E+02  2.90E-02  0.00E+00  0.00E+00  6.89E+04  0.00E+00  0.00E+00  0.00E+00  0.00E+00
  15    5.00  0.00E+00  0.00E+00  3.93E+02  3.60E-02  0.00E+00  0.00E+00  8.02E+04  0.00E+00  0.00E+00  0.00E+00  0.00E+00
  16    4.00  0.00E+00  0.00E+00  4.54E+02  4.39E-02  0.00E+00  0.00E+00  9.28E+04  0.00E+00  0.00E+00  0.00E+00  0.00E+00
  17    3.00  0.00E+00  0.00E+00  5.23E+02  5.28E-02  0.00E+00  0.00E+00  1.07E+05  0.00E+00  0.00E+00  0.00E+00  0.00E+00
  18    2.00  0.00E+00  0.00E+00  5.99E+02  6.29E-02  0.00E+00  0.00E+00  1.22E+05  0.00E+00  0.00E+00  0.00E+00  0.00E+00
  19    1.00  0.00E+00  0.00E+00  6.82E+02  7.46E-02  0.00E+00  0.00E+00  1.39E+05  0.00E+00  0.00E+00  0.00E+00  0.00E+00
  20    0.00  0.00E+00  0.00E+00  7.75E+02  8.79E-02  0.00E+00  0.00E+00  1.58E+05  0.00E+00  0.00E+00  0.00E+00  0.00E+00



1  J    Z      CFC-11    CFC-12    CFC-13    CFC-14    CFC-22    CFC-113   CFC-114   CFC-115   CLONO2     HNO4     CHCL2F 
                CCL4      N2O5  
      (KM)    (                                                   ATM CM                                                )

   1   19.00  6.37E-07  1.41E-06  7.44E-15  7.44E-15  3.85E-07  1.05E-07  7.72E-08  7.44E-15  2.09E-06  1.93E-06  7.44E-15
              5.49E-07  1.95E-07
   2   18.00  1.47E-06  3.14E-06  1.61E-14  1.61E-14  8.49E-07  2.36E-07  1.70E-07  1.61E-14  3.91E-06  3.78E-06  1.61E-14
              1.29E-06  3.61E-07
   3   17.00  2.56E-06  5.28E-06  2.63E-14  2.63E-14  1.41E-06  4.00E-07  2.82E-07  2.63E-14  5.29E-06  5.46E-06  2.63E-14
              2.27E-06  4.84E-07
   4   16.00  3.97E-06  7.90E-06  3.82E-14  3.82E-14  2.08E-06  6.02E-07  4.18E-07  3.82E-14  6.03E-06  6.86E-06  3.82E-14
              3.55E-06  5.43E-07
   5   15.00  5.71E-06  1.11E-05  5.22E-14  5.22E-14  2.88E-06  8.49E-07  5.79E-07  5.22E-14  6.38E-06  8.09E-06  5.22E-14
              5.15E-06  5.64E-07
   6   14.00  7.81E-06  1.48E-05  6.85E-14  6.85E-14  3.83E-06  1.14E-06  7.69E-07  6.85E-14  6.67E-06  9.32E-06  6.85E-14
              7.09E-06  5.82E-07
   7   13.00  1.03E-05  1.93E-05  8.75E-14  8.75E-14  4.95E-06  1.49E-06  9.95E-07  8.75E-14  6.89E-06  1.05E-05  8.75E-14
              9.44E-06  5.94E-07
   8   12.00  1.34E-05  2.46E-05  1.10E-13  1.10E-13  6.27E-06  1.91E-06  1.26E-06  1.10E-13  6.98E-06  1.16E-05  1.10E-13
              1.23E-05  5.99E-07
   9   11.00  1.70E-05  3.08E-05  1.36E-13  1.36E-13  7.82E-06  2.40E-06  1.57E-06  1.36E-13  7.01E-06  1.28E-05  1.36E-13
              1.56E-05  5.99E-07
  10   10.00  2.12E-05  3.80E-05  1.66E-13  1.66E-13  9.61E-06  2.97E-06  1.94E-06  1.66E-13  7.05E-06  1.42E-05  1.66E-13
              1.95E-05  5.99E-07
  11    9.00  2.60E-05  4.62E-05  2.00E-13  2.00E-13  1.16E-05  3.62E-06  2.34E-06  2.00E-13  7.09E-06  1.58E-05  2.00E-13
              2.39E-05  5.99E-07
  12    8.00  3.13E-05  5.54E-05  2.38E-13  2.38E-13  1.39E-05  4.35E-06  2.80E-06  2.38E-13  7.13E-06  1.77E-05  2.38E-13
              2.89E-05  5.99E-07
  13    7.00  3.74E-05  6.57E-05  2.81E-13  2.81E-13  1.65E-05  5.17E-06  3.32E-06  2.81E-13  7.20E-06  1.97E-05  2.81E-13
              3.44E-05  6.00E-07
  14    6.00  4.41E-05  7.73E-05  3.30E-13  3.30E-13  1.94E-05  6.08E-06  3.90E-06  3.30E-13  7.29E-06  2.13E-05  3.30E-13
              4.07E-05  6.00E-07
  15    5.00  5.17E-05  9.02E-05  3.84E-13  3.84E-13  2.26E-05  7.11E-06  4.55E-06  3.84E-13  7.43E-06  2.26E-05  3.84E-13
              4.77E-05  6.00E-07
  16    4.00  6.01E-05  1.05E-04  4.44E-13  4.44E-13  2.62E-05  8.25E-06  5.27E-06  4.44E-13  7.61E-06  2.33E-05  4.44E-13
              5.55E-05  6.00E-07
  17    3.00  6.95E-05  1.21E-04  5.11E-13  5.11E-13  3.02E-05  9.52E-06  6.07E-06  5.11E-13  7.85E-06  2.38E-05  5.11E-13
              6.41E-05  6.00E-07
  18    2.00  7.98E-05  1.38E-04  5.85E-13  5.85E-13  3.46E-05  1.09E-05  6.96E-06  5.85E-13  8.16E-06  2.41E-05  5.85E-13
              7.38E-05  6.01E-07
  19    1.00  9.13E-05  1.58E-04  6.66E-13  6.66E-13  3.95E-05  1.25E-05  7.94E-06  6.66E-13  8.55E-06  2.44E-05  6.66E-13
              8.44E-05  6.01E-07
  20    0.00  1.04E-04  1.80E-04  7.57E-13  7.57E-13  4.49E-05  1.42E-05  9.02E-06  7.57E-13  9.04E-06  2.45E-05  7.57E-13
              9.61E-05  6.01E-07


0SUMMARY OF THE GEOMETRY CALCULATION

          H1      =     20.000 KM
          H2      =      0.000 KM
          ANGLE   =    180.000 DEG
          RANGE   =     20.000 KM
          BETA    =      0.000 DEG
          PHI     =      0.000 DEG
          HMIN    =      0.000 KM
          BENDING =      0.000 DEG
          LEN     =          0




1EQUIVALENT SEA LEVEL TOTAL ABSORBER AMOUNTS

                 HNO3      O3 UV       CNTMSLF1    CNTMSLF2   CNTMFRN
               (ATM CM)   (ATM CM)     (MOL CM-2)  (MOL CM-2)  (MOL CM-2)  (MOL CM-2)

             0.000E+00   0.000E+00   0.000E+00   0.000E+00   0.000E+00


              N2 CONT    MOL SCAT       AER 1       AER 2       AER 3       AER 4     CIRRUS      MEAN RH
                                                                                                  (PRCNT)

             3.809E+00   7.571E+00   1.082E+00   8.102E-02   4.990E-03   0.000E+00   0.000E+00        0.00


                 H2O        O3          CO2         CO          CH4         N2O          O2
               (                                        ATM CM                            )

             0.000E+00   0.000E+00   7.748E+02   8.790E-02   0.000E+00   0.000E+00   1.581E+05

                 NH3        NO          NO2         SO2
                 (               ATM CM               )

             0.000E+00   0.000E+00   0.000E+00   0.000E+00

             CFC-11      CFC-12      CFC-13      CFC-14      CFC-22      CFC-113     CFC-114
                 (                                      ATM CM                            )

             1.039E-04   1.797E-04   7.566E-13   7.566E-13   4.494E-05   1.419E-05   9.022E-06

             CFC-115     CLONO2       HNO4       CHCL2F       CCL4        N2O5  
                 (                                      ATM CM                            )

             7.566E-13   9.043E-06   2.447E-05   7.566E-13   9.614E-05   6.007E-07
  iv           90
  iv           95
1                                             RADIANCE(WATTS/CM2-STER-XXX)
0  FREQ   WAVLEN    PATH THERMAL      SURFACE EMISSION    SURFACE REFLECTED     TOTAL RADIANCE   INTEGRAL    TOTAL
  (CM-1) (MICRN)    (CM-1)   (MICRN)    (CM-1)   (MICRN)    (CM-1)   (MICRN)    (CM-1)   (MICRN)    (CM-1)   TRANS

    100. 100.000  3.11E-08  3.11E-08  1.77E-06  1.77E-06  0.00E+00  0.00E+00  1.80E-06  1.80E-06  1.80E-06  0.98251
    102.  98.039  3.37E-08  3.51E-08  1.83E-06  1.91E-06  0.00E+00  0.00E+00  1.86E-06  1.94E-06  5.53E-06  0.98163
    104.  96.154  1.08E-07  1.17E-07  1.81E-06  1.96E-06  0.00E+00  0.00E+00  1.92E-06  2.07E-06  9.36E-06  0.93732
    106.  94.340  2.15E-07  2.41E-07  1.74E-06  1.96E-06  0.00E+00  0.00E+00  1.96E-06  2.20E-06  1.33E-05  0.87560
    108.  92.593  1.32E-07  1.53E-07  1.91E-06  2.23E-06  0.00E+00  0.00E+00  2.04E-06  2.38E-06  1.74E-05  0.92812
    110.  90.909  4.39E-08  5.31E-08  2.08E-06  2.51E-06  0.00E+00  0.00E+00  2.12E-06  2.57E-06  2.16E-05  0.97898
    112.  89.286  4.37E-08  5.49E-08  2.14E-06  2.69E-06  0.00E+00  0.00E+00  2.19E-06  2.74E-06  2.60E-05  0.97979
    114.  87.719  4.71E-08  6.12E-08  2.21E-06  2.87E-06  0.00E+00  0.00E+00  2.25E-06  2.93E-06  3.05E-05  0.97887
    116.  86.207  1.12E-07  1.50E-07  2.20E-06  2.96E-06  0.00E+00  0.00E+00  2.31E-06  3.11E-06  3.51E-05  0.94732
    118.  84.746  2.06E-07  2.87E-07  2.16E-06  3.00E-06  0.00E+00  0.00E+00  2.36E-06  3.29E-06  3.98E-05  0.90165
    120.  83.333  1.26E-07  1.82E-07  2.32E-06  3.34E-06  0.00E+00  0.00E+00  2.45E-06  3.52E-06  4.47E-05  0.94331
    122.  81.967  5.60E-08  8.33E-08  2.47E-06  3.68E-06  0.00E+00  0.00E+00  2.53E-06  3.76E-06  4.98E-05  0.97760
    124.  80.645  5.76E-08  8.86E-08  2.54E-06  3.90E-06  0.00E+00  0.00E+00  2.60E-06  3.99E-06  5.50E-05  0.97758
    126.  79.365  8.21E-08  1.30E-07  2.58E-06  4.10E-06  0.00E+00  0.00E+00  2.66E-06  4.23E-06  6.03E-05  0.96780
    128.  78.125  1.50E-07  2.46E-07  2.57E-06  4.21E-06  0.00E+00  0.00E+00  2.72E-06  4.46E-06  6.57E-05  0.93965
    130.  76.923  1.62E-07  2.73E-07  2.63E-06  4.44E-06  0.00E+00  0.00E+00  2.79E-06  4.72E-06  7.13E-05  0.93636
    132.  75.758  9.91E-08  1.73E-07  2.77E-06  4.83E-06  0.00E+00  0.00E+00  2.87E-06  5.01E-06  7.71E-05  0.96367
    134.  74.627  7.56E-08  1.36E-07  2.87E-06  5.16E-06  0.00E+00  0.00E+00  2.95E-06  5.29E-06  8.30E-05  0.97412
    136.  73.529  7.92E-08  1.46E-07  2.94E-06  5.44E-06  0.00E+00  0.00E+00  3.02E-06  5.59E-06  8.90E-05  0.97353
    138.  72.464  9.83E-08  1.87E-07  2.99E-06  5.70E-06  0.00E+00  0.00E+00  3.09E-06  5.88E-06  9.52E-05  0.96728
    140.  71.429  1.50E-07  2.93E-07  3.01E-06  5.89E-06  0.00E+00  0.00E+00  3.16E-06  6.18E-06  1.01E-04  0.94940
    142.  70.423  1.70E-07  3.43E-07  3.06E-06  6.16E-06  0.00E+00  0.00E+00  3.23E-06  6.50E-06  1.08E-04  0.94312
    144.  69.444  9.57E-08  1.98E-07  3.22E-06  6.67E-06  0.00E+00  0.00E+00  3.31E-06  6.87E-06  1.15E-04  0.97080
    146.  68.493  9.89E-08  2.11E-07  3.29E-06  7.00E-06  0.00E+00  0.00E+00  3.38E-06  7.22E-06  1.21E-04  0.97049
    148.  67.568  1.03E-07  2.26E-07  3.36E-06  7.35E-06  0.00E+00  0.00E+00  3.46E-06  7.58E-06  1.28E-04  0.96985
    150.  66.667  1.24E-07  2.79E-07  3.41E-06  7.66E-06  0.00E+00  0.00E+00  3.53E-06  7.94E-06  1.35E-04  0.96387
    152.  65.789  1.73E-07  3.99E-07  3.43E-06  7.91E-06  0.00E+00  0.00E+00  3.60E-06  8.31E-06  1.43E-04  0.94924
    154.  64.935  1.36E-07  3.23E-07  3.54E-06  8.40E-06  0.00E+00  0.00E+00  3.68E-06  8.73E-06  1.50E-04  0.96188
    156.  64.103  1.20E-07  2.91E-07  3.64E-06  8.85E-06  0.00E+00  0.00E+00  3.76E-06  9.14E-06  1.57E-04  0.96779
    158.  63.291  1.24E-07  3.09E-07  3.71E-06  9.26E-06  0.00E+00  0.00E+00  3.83E-06  9.57E-06  1.65E-04  0.96733
    160.  62.500  1.33E-07  3.40E-07  3.77E-06  9.66E-06  0.00E+00  0.00E+00  3.91E-06  1.00E-05  1.73E-04  0.96555
    162.  61.728  1.55E-07  4.06E-07  3.83E-06  1.00E-05  0.00E+00  0.00E+00  3.98E-06  1.04E-05  1.81E-04  0.96010
    164.  60.976  1.60E-07  4.31E-07  3.90E-06  1.05E-05  0.00E+00  0.00E+00  4.06E-06  1.09E-05  1.89E-04  0.95933
    166.  60.241  1.47E-07  4.04E-07  3.99E-06  1.10E-05  0.00E+00  0.00E+00  4.13E-06  1.14E-05  1.97E-04  0.96400
    168.  59.524  1.45E-07  4.10E-07  4.07E-06  1.15E-05  0.00E+00  0.00E+00  4.21E-06  1.19E-05  2.06E-04  0.96512
    170.  58.824  1.49E-07  4.32E-07  4.14E-06  1.20E-05  0.00E+00  0.00E+00  4.29E-06  1.24E-05  2.14E-04  0.96476
    172.  58.140  1.56E-07  4.60E-07  4.21E-06  1.25E-05  0.00E+00  0.00E+00  4.36E-06  1.29E-05  2.23E-04  0.96388
    174.  57.471  1.69E-07  5.11E-07  4.27E-06  1.29E-05  0.00E+00  0.00E+00  4.44E-06  1.34E-05  2.32E-04  0.96126
    176.  56.818  1.73E-07  5.36E-07  4.34E-06  1.35E-05  0.00E+00  0.00E+00  4.52E-06  1.40E-05  2.41E-04  0.96095
    178.  56.180  1.68E-07  5.32E-07  4.43E-06  1.40E-05  0.00E+00  0.00E+00  4.59E-06  1.46E-05  2.50E-04  0.96293
    180.  55.556  1.70E-07  5.50E-07  4.50E-06  1.46E-05  0.00E+00  0.00E+00  4.67E-06  1.51E-05  2.59E-04  0.96326
    182.  54.945  1.74E-07  5.75E-07  4.58E-06  1.52E-05  0.00E+00  0.00E+00  4.75E-06  1.57E-05  2.69E-04  0.96297
    184.  54.348  1.80E-07  6.09E-07  4.65E-06  1.57E-05  0.00E+00  0.00E+00  4.83E-06  1.63E-05  2.79E-04  0.96223
    186.  53.763  1.90E-07  6.58E-07  4.71E-06  1.63E-05  0.00E+00  0.00E+00  4.90E-06  1.70E-05  2.88E-04  0.96055
    188.  53.191  1.88E-07  6.66E-07  4.79E-06  1.69E-05  0.00E+00  0.00E+00  4.98E-06  1.76E-05  2.98E-04  0.96164
    190.  52.632  1.90E-07  6.87E-07  4.87E-06  1.76E-05  0.00E+00  0.00E+00  5.06E-06  1.83E-05  3.08E-04  0.96191
    192.  52.083  1.94E-07  7.17E-07  4.94E-06  1.82E-05  0.00E+00  0.00E+00  5.14E-06  1.89E-05  3.19E-04  0.96166
    194.  51.546  1.99E-07  7.49E-07  5.01E-06  1.89E-05  0.00E+00  0.00E+00  5.21E-06  1.96E-05  3.29E-04  0.96132
    196.  51.020  2.05E-07  7.87E-07  5.08E-06  1.95E-05  0.00E+00  0.00E+00  5.29E-06  2.03E-05  3.40E-04  0.96071
    198.  50.505  2.09E-07  8.20E-07  5.16E-06  2.02E-05  0.00E+00  0.00E+00  5.37E-06  2.10E-05  3.50E-04  0.96046
  iv          200
1                                             RADIANCE(WATTS/CM2-STER-XXX)
0  FREQ   WAVLEN    PATH THERMAL      SURFACE EMISSION    SURFACE REFLECTED     TOTAL RADIANCE   INTEGRAL    TOTAL
  (CM-1) (MICRN)    (CM-1)   (MICRN)    (CM-1)   (MICRN)    (CM-1)   (MICRN)    (CM-1)   (MICRN)    (CM-1)   TRANS

    200.  50.000  2.12E-07  8.47E-07  5.23E-06  2.09E-05  0.00E+00  0.00E+00  5.44E-06  2.18E-05  3.61E-04  0.96057
    202.  49.505  2.16E-07  8.82E-07  5.31E-06  2.16E-05  0.00E+00  0.00E+00  5.52E-06  2.25E-05  3.72E-04  0.96033
    204.  49.020  2.21E-07  9.20E-07  5.38E-06  2.24E-05  0.00E+00  0.00E+00  5.60E-06  2.33E-05  3.84E-04  0.95996
    206.  48.544  2.26E-07  9.61E-07  5.45E-06  2.31E-05  0.00E+00  0.00E+00  5.68E-06  2.41E-05  3.95E-04  0.95954
    208.  48.077  2.32E-07  1.00E-06  5.52E-06  2.39E-05  0.00E+00  0.00E+00  5.75E-06  2.49E-05  4.06E-04  0.95912
    210.  47.619  2.37E-07  1.05E-06  5.59E-06  2.47E-05  0.00E+00  0.00E+00  5.83E-06  2.57E-05  4.18E-04  0.95871
    212.  47.170  2.41E-07  1.08E-06  5.67E-06  2.55E-05  0.00E+00  0.00E+00  5.91E-06  2.65E-05  4.30E-04  0.95858
    214.  46.729  2.46E-07  1.13E-06  5.74E-06  2.63E-05  0.00E+00  0.00E+00  5.98E-06  2.74E-05  4.42E-04  0.95825
    216.  46.296  2.51E-07  1.17E-06  5.81E-06  2.71E-05  0.00E+00  0.00E+00  6.06E-06  2.83E-05  4.54E-04  0.95793
    218.  45.872  2.57E-07  1.22E-06  5.88E-06  2.79E-05  0.00E+00  0.00E+00  6.14E-06  2.92E-05  4.66E-04  0.95759
    220.  45.455  2.62E-07  1.27E-06  5.95E-06  2.88E-05  0.00E+00  0.00E+00  6.21E-06  3.01E-05  4.79E-04  0.95720
    222.  45.045  2.67E-07  1.31E-06  6.02E-06  2.97E-05  0.00E+00  0.00E+00  6.29E-06  3.10E-05  4.91E-04  0.95699
    224.  44.643  2.72E-07  1.36E-06  6.09E-06  3.06E-05  0.00E+00  0.00E+00  6.37E-06  3.19E-05  5.04E-04  0.95670
    226.  44.248  2.77E-07  1.41E-06  6.16E-06  3.15E-05  0.00E+00  0.00E+00  6.44E-06  3.29E-05  5.17E-04  0.95641
    228.  43.860  2.82E-07  1.46E-06  6.23E-06  3.24E-05  0.00E+00  0.00E+00  6.52E-06  3.39E-05  5.30E-04  0.95612
    230.  43.478  2.87E-07  1.52E-06  6.31E-06  3.34E-05  0.00E+00  0.00E+00  6.59E-06  3.49E-05  5.43E-04  0.95581
    232.  43.103  2.92E-07  1.57E-06  6.38E-06  3.43E-05  0.00E+00  0.00E+00  6.67E-06  3.59E-05  5.56E-04  0.95554
    234.  42.735  2.97E-07  1.63E-06  6.45E-06  3.53E-05  0.00E+00  0.00E+00  6.74E-06  3.69E-05  5.70E-04  0.95528
    236.  42.373  3.02E-07  1.68E-06  6.52E-06  3.63E-05  0.00E+00  0.00E+00  6.82E-06  3.80E-05  5.84E-04  0.95501
    238.  42.017  3.07E-07  1.74E-06  6.59E-06  3.73E-05  0.00E+00  0.00E+00  6.89E-06  3.90E-05  5.97E-04  0.95475
    240.  41.667  3.12E-07  1.80E-06  6.66E-06  3.83E-05  0.00E+00  0.00E+00  6.97E-06  4.01E-05  6.11E-04  0.95448
    242.  41.322  3.17E-07  1.86E-06  6.72E-06  3.94E-05  0.00E+00  0.00E+00  7.04E-06  4.12E-05  6.25E-04  0.95422
    244.  40.984  3.22E-07  1.92E-06  6.79E-06  4.04E-05  0.00E+00  0.00E+00  7.12E-06  4.24E-05  6.40E-04  0.95398
    246.  40.650  3.27E-07  1.98E-06  6.86E-06  4.15E-05  0.00E+00  0.00E+00  7.19E-06  4.35E-05  6.54E-04  0.95373
    248.  40.323  3.33E-07  2.05E-06  6.93E-06  4.26E-05  0.00E+00  0.00E+00  7.26E-06  4.47E-05  6.68E-04  0.95349
    250.  40.000  3.37E-07  2.11E-06  7.00E-06  4.37E-05  0.00E+00  0.00E+00  7.34E-06  4.59E-05  6.83E-04  0.95327
    252.  39.683  3.42E-07  2.17E-06  7.07E-06  4.49E-05  0.00E+00  0.00E+00  7.41E-06  4.71E-05  6.98E-04  0.95316
    254.  39.370  3.46E-07  2.23E-06  7.14E-06  4.60E-05  0.00E+00  0.00E+00  7.48E-06  4.83E-05  7.13E-04  0.95307
    256.  39.063  3.50E-07  2.29E-06  7.21E-06  4.72E-05  0.00E+00  0.00E+00  7.56E-06  4.95E-05  7.28E-04  0.95298
    258.  38.760  3.53E-07  2.35E-06  7.27E-06  4.84E-05  0.00E+00  0.00E+00  7.63E-06  5.08E-05  7.43E-04  0.95289
    260.  38.462  3.57E-07  2.42E-06  7.34E-06  4.96E-05  0.00E+00  0.00E+00  7.70E-06  5.21E-05  7.59E-04  0.95280
    262.  38.168  3.61E-07  2.48E-06  7.41E-06  5.09E-05  0.00E+00  0.00E+00  7.77E-06  5.33E-05  7.74E-04  0.95272
    264.  37.879  3.65E-07  2.55E-06  7.48E-06  5.21E-05  0.00E+00  0.00E+00  7.84E-06  5.47E-05  7.90E-04  0.95263
    266.  37.594  3.69E-07  2.61E-06  7.54E-06  5.34E-05  0.00E+00  0.00E+00  7.91E-06  5.60E-05  8.06E-04  0.95255
    268.  37.313  3.73E-07  2.68E-06  7.61E-06  5.47E-05  0.00E+00  0.00E+00  7.98E-06  5.74E-05  8.22E-04  0.95247
    270.  37.037  3.77E-07  2.75E-06  7.68E-06  5.60E-05  0.00E+00  0.00E+00  8.06E-06  5.87E-05  8.38E-04  0.95239
    272.  36.765  3.81E-07  2.82E-06  7.74E-06  5.73E-05  0.00E+00  0.00E+00  8.13E-06  6.01E-05  8.54E-04  0.95231
    274.  36.496  3.85E-07  2.89E-06  7.81E-06  5.86E-05  0.00E+00  0.00E+00  8.20E-06  6.15E-05  8.70E-04  0.95224
    276.  36.232  3.88E-07  2.96E-06  7.88E-06  6.00E-05  0.00E+00  0.00E+00  8.26E-06  6.30E-05  8.87E-04  0.95216
    278.  35.971  3.92E-07  3.03E-06  7.94E-06  6.14E-05  0.00E+00  0.00E+00  8.33E-06  6.44E-05  9.04E-04  0.95208
    280.  35.714  3.96E-07  3.11E-06  8.01E-06  6.28E-05  0.00E+00  0.00E+00  8.40E-06  6.59E-05  9.20E-04  0.95201
    282.  35.461  4.00E-07  3.18E-06  8.07E-06  6.42E-05  0.00E+00  0.00E+00  8.47E-06  6.74E-05  9.37E-04  0.95194
    284.  35.211  4.04E-07  3.26E-06  8.14E-06  6.56E-05  0.00E+00  0.00E+00  8.54E-06  6.89E-05  9.55E-04  0.95186
    286.  34.965  4.07E-07  3.33E-06  8.20E-06  6.71E-05  0.00E+00  0.00E+00  8.61E-06  7.04E-05  9.72E-04  0.95179
    288.  34.722  4.11E-07  3.41E-06  8.26E-06  6.85E-05  0.00E+00  0.00E+00  8.67E-06  7.19E-05  9.89E-04  0.95172
    290.  34.483  4.15E-07  3.49E-06  8.33E-06  7.00E-05  0.00E+00  0.00E+00  8.74E-06  7.35E-05  1.01E-03  0.95165
    292.  34.247  4.19E-07  3.57E-06  8.39E-06  7.15E-05  0.00E+00  0.00E+00  8.81E-06  7.51E-05  1.02E-03  0.95159
    294.  34.014  4.22E-07  3.65E-06  8.45E-06  7.30E-05  0.00E+00  0.00E+00  8.87E-06  7.67E-05  1.04E-03  0.95152
    296.  33.784  4.26E-07  3.73E-06  8.51E-06  7.46E-05  0.00E+00  0.00E+00  8.94E-06  7.83E-05  1.06E-03  0.95145
    298.  33.557  4.29E-07  3.81E-06  8.57E-06  7.61E-05  0.00E+00  0.00E+00  9.00E-06  8.00E-05  1.08E-03  0.95139
  iv          300
1                                             RADIANCE(WATTS/CM2-STER-XXX)
0  FREQ   WAVLEN    PATH THERMAL      SURFACE EMISSION    SURFACE REFLECTED     TOTAL RADIANCE   INTEGRAL    TOTAL
  (CM-1) (MICRN)    (CM-1)   (MICRN)    (CM-1)   (MICRN)    (CM-1)   (MICRN)    (CM-1)   (MICRN)    (CM-1)   TRANS

    300.  33.333  4.33E-07  3.90E-06  8.64E-06  7.77E-05  0.00E+00  0.00E+00  9.07E-06  8.16E-05  1.10E-03  0.95132
    302.  33.113  4.37E-07  3.98E-06  8.70E-06  7.93E-05  0.00E+00  0.00E+00  9.13E-06  8.33E-05  1.11E-03  0.95126
    304.  32.895  4.40E-07  4.07E-06  8.76E-06  8.09E-05  0.00E+00  0.00E+00  9.20E-06  8.50E-05  1.13E-03  0.95119
    306.  32.680  4.44E-07  4.16E-06  8.82E-06  8.26E-05  0.00E+00  0.00E+00  9.26E-06  8.67E-05  1.15E-03  0.95113
    308.  32.468  4.47E-07  4.24E-06  8.88E-06  8.42E-05  0.00E+00  0.00E+00  9.32E-06  8.85E-05  1.17E-03  0.95107
    310.  32.258  4.51E-07  4.33E-06  8.94E-06  8.59E-05  0.00E+00  0.00E+00  9.39E-06  9.02E-05  1.19E-03  0.95101
    312.  32.051  4.54E-07  4.42E-06  9.00E-06  8.76E-05  0.00E+00  0.00E+00  9.45E-06  9.20E-05  1.21E-03  0.95095
    314.  31.847  4.58E-07  4.51E-06  9.05E-06  8.93E-05  0.00E+00  0.00E+00  9.51E-06  9.38E-05  1.23E-03  0.95089
    316.  31.646  4.61E-07  4.61E-06  9.11E-06  9.10E-05  0.00E+00  0.00E+00  9.57E-06  9.56E-05  1.25E-03  0.95083
    318.  31.447  4.65E-07  4.70E-06  9.17E-06  9.27E-05  0.00E+00  0.00E+00  9.63E-06  9.74E-05  1.26E-03  0.95077
    320.  31.250  4.68E-07  4.79E-06  9.23E-06  9.45E-05  0.00E+00  0.00E+00  9.69E-06  9.93E-05  1.28E-03  0.95072
    322.  31.056  4.71E-07  4.89E-06  9.28E-06  9.63E-05  0.00E+00  0.00E+00  9.75E-06  1.01E-04  1.30E-03  0.95066
    324.  30.864  4.75E-07  4.98E-06  9.34E-06  9.80E-05  0.00E+00  0.00E+00  9.81E-06  1.03E-04  1.32E-03  0.95061
    326.  30.675  4.78E-07  5.08E-06  9.40E-06  9.98E-05  0.00E+00  0.00E+00  9.87E-06  1.05E-04  1.34E-03  0.95055
    328.  30.488  4.81E-07  5.18E-06  9.45E-06  1.02E-04  0.00E+00  0.00E+00  9.93E-06  1.07E-04  1.36E-03  0.95050
    330.  30.303  4.85E-07  5.28E-06  9.51E-06  1.04E-04  0.00E+00  0.00E+00  9.99E-06  1.09E-04  1.38E-03  0.95044
    332.  30.120  4.88E-07  5.38E-06  9.56E-06  1.05E-04  0.00E+00  0.00E+00  1.00E-05  1.11E-04  1.40E-03  0.95034
    334.  29.940  4.92E-07  5.49E-06  9.61E-06  1.07E-04  0.00E+00  0.00E+00  1.01E-05  1.13E-04  1.42E-03  0.95023
    336.  29.762  4.97E-07  5.61E-06  9.67E-06  1.09E-04  0.00E+00  0.00E+00  1.02E-05  1.15E-04  1.44E-03  0.95007
    338.  29.586  5.01E-07  5.73E-06  9.72E-06  1.11E-04  0.00E+00  0.00E+00  1.02E-05  1.17E-04  1.46E-03  0.94986
    340.  29.412  5.06E-07  5.85E-06  9.77E-06  1.13E-04  0.00E+00  0.00E+00  1.03E-05  1.19E-04  1.48E-03  0.94965
    342.  29.240  5.11E-07  5.98E-06  9.82E-06  1.15E-04  0.00E+00  0.00E+00  1.03E-05  1.21E-04  1.51E-03  0.94944
    344.  29.070  5.16E-07  6.10E-06  9.87E-06  1.17E-04  0.00E+00  0.00E+00  1.04E-05  1.23E-04  1.53E-03  0.94924
    346.  28.902  5.20E-07  6.23E-06  9.92E-06  1.19E-04  0.00E+00  0.00E+00  1.04E-05  1.25E-04  1.55E-03  0.94904
    348.  28.736  5.25E-07  6.36E-06  9.97E-06  1.21E-04  0.00E+00  0.00E+00  1.05E-05  1.27E-04  1.57E-03  0.94884
    350.  28.571  5.30E-07  6.49E-06  1.00E-05  1.23E-04  0.00E+00  0.00E+00  1.05E-05  1.29E-04  1.59E-03  0.94864
    352.  28.409  5.34E-07  6.62E-06  1.01E-05  1.25E-04  0.00E+00  0.00E+00  1.06E-05  1.31E-04  1.61E-03  0.94845
    354.  28.249  5.39E-07  6.75E-06  1.01E-05  1.27E-04  0.00E+00  0.00E+00  1.07E-05  1.33E-04  1.63E-03  0.94825
    356.  28.090  5.43E-07  6.89E-06  1.02E-05  1.29E-04  0.00E+00  0.00E+00  1.07E-05  1.36E-04  1.65E-03  0.94806
    358.  27.933  5.48E-07  7.02E-06  1.02E-05  1.31E-04  0.00E+00  0.00E+00  1.08E-05  1.38E-04  1.67E-03  0.94788
    360.  27.778  5.52E-07  7.16E-06  1.03E-05  1.33E-04  0.00E+00  0.00E+00  1.08E-05  1.40E-04  1.70E-03  0.94769
    362.  27.624  5.57E-07  7.30E-06  1.03E-05  1.35E-04  0.00E+00  0.00E+00  1.09E-05  1.42E-04  1.72E-03  0.94751
    364.  27.473  5.61E-07  7.44E-06  1.03E-05  1.37E-04  0.00E+00  0.00E+00  1.09E-05  1.45E-04  1.74E-03  0.94732
    366.  27.322  5.66E-07  7.58E-06  1.04E-05  1.39E-04  0.00E+00  0.00E+00  1.10E-05  1.47E-04  1.76E-03  0.94714
    368.  27.174  5.70E-07  7.72E-06  1.04E-05  1.41E-04  0.00E+00  0.00E+00  1.10E-05  1.49E-04  1.78E-03  0.94697
    370.  27.027  5.74E-07  7.86E-06  1.05E-05  1.43E-04  0.00E+00  0.00E+00  1.11E-05  1.51E-04  1.81E-03  0.94679
    372.  26.882  5.79E-07  8.01E-06  1.05E-05  1.46E-04  0.00E+00  0.00E+00  1.11E-05  1.54E-04  1.83E-03  0.94662
    374.  26.738  5.83E-07  8.15E-06  1.06E-05  1.48E-04  0.00E+00  0.00E+00  1.11E-05  1.56E-04  1.85E-03  0.94644
    376.  26.596  5.87E-07  8.30E-06  1.06E-05  1.50E-04  0.00E+00  0.00E+00  1.12E-05  1.58E-04  1.87E-03  0.94627
    378.  26.455  5.91E-07  8.45E-06  1.06E-05  1.52E-04  0.00E+00  0.00E+00  1.12E-05  1.61E-04  1.89E-03  0.94610
    380.  26.316  5.95E-07  8.60E-06  1.07E-05  1.54E-04  0.00E+00  0.00E+00  1.13E-05  1.63E-04  1.92E-03  0.94594
    382.  26.178  6.00E-07  8.75E-06  1.07E-05  1.57E-04  0.00E+00  0.00E+00  1.13E-05  1.65E-04  1.94E-03  0.94577
    384.  26.042  6.04E-07  8.90E-06  1.08E-05  1.59E-04  0.00E+00  0.00E+00  1.14E-05  1.68E-04  1.96E-03  0.94561
    386.  25.907  6.08E-07  9.06E-06  1.08E-05  1.61E-04  0.00E+00  0.00E+00  1.14E-05  1.70E-04  1.99E-03  0.94545
    388.  25.773  6.12E-07  9.21E-06  1.09E-05  1.63E-04  0.00E+00  0.00E+00  1.15E-05  1.73E-04  2.01E-03  0.94529
    390.  25.641  6.16E-07  9.37E-06  1.09E-05  1.66E-04  0.00E+00  0.00E+00  1.15E-05  1.75E-04  2.03E-03  0.94513
    392.  25.510  6.20E-07  9.52E-06  1.09E-05  1.68E-04  0.00E+00  0.00E+00  1.16E-05  1.77E-04  2.05E-03  0.94497
    394.  25.381  6.24E-07  9.68E-06  1.10E-05  1.70E-04  0.00E+00  0.00E+00  1.16E-05  1.80E-04  2.08E-03  0.94481
    396.  25.253  6.28E-07  9.84E-06  1.10E-05  1.73E-04  0.00E+00  0.00E+00  1.16E-05  1.82E-04  2.10E-03  0.94466
    398.  25.126  6.31E-07  1.00E-05  1.10E-05  1.75E-04  0.00E+00  0.00E+00  1.17E-05  1.85E-04  2.12E-03  0.94451
  iv          400
1                                             RADIANCE(WATTS/CM2-STER-XXX)
0  FREQ   WAVLEN    PATH THERMAL      SURFACE EMISSION    SURFACE REFLECTED     TOTAL RADIANCE   INTEGRAL    TOTAL
  (CM-1) (MICRN)    (CM-1)   (MICRN)    (CM-1)   (MICRN)    (CM-1)   (MICRN)    (CM-1)   (MICRN)    (CM-1)   TRANS

    400.  25.000  6.35E-07  1.02E-05  1.11E-05  1.77E-04  0.00E+00  0.00E+00  1.17E-05  1.87E-04  2.15E-03  0.94434
    402.  24.876  6.41E-07  1.04E-05  1.11E-05  1.80E-04  0.00E+00  0.00E+00  1.18E-05  1.90E-04  2.17E-03  0.94405
    404.  24.752  6.46E-07  1.05E-05  1.11E-05  1.82E-04  0.00E+00  0.00E+00  1.18E-05  1.93E-04  2.20E-03  0.94375
    406.  24.631  6.52E-07  1.07E-05  1.12E-05  1.84E-04  0.00E+00  0.00E+00  1.18E-05  1.95E-04  2.22E-03  0.94345
    408.  24.510  6.57E-07  1.09E-05  1.12E-05  1.87E-04  0.00E+00  0.00E+00  1.19E-05  1.98E-04  2.24E-03  0.94315
    410.  24.390  6.63E-07  1.11E-05  1.12E-05  1.89E-04  0.00E+00  0.00E+00  1.19E-05  2.00E-04  2.27E-03  0.94286
    412.  24.272  6.68E-07  1.13E-05  1.13E-05  1.91E-04  0.00E+00  0.00E+00  1.19E-05  2.03E-04  2.29E-03  0.94257
    414.  24.155  6.73E-07  1.15E-05  1.13E-05  1.94E-04  0.00E+00  0.00E+00  1.20E-05  2.05E-04  2.31E-03  0.94228
    416.  24.038  6.79E-07  1.17E-05  1.13E-05  1.96E-04  0.00E+00  0.00E+00  1.20E-05  2.08E-04  2.34E-03  0.94199
    418.  23.923  6.84E-07  1.19E-05  1.14E-05  1.99E-04  0.00E+00  0.00E+00  1.21E-05  2.11E-04  2.36E-03  0.94171
    420.  23.810  6.89E-07  1.22E-05  1.14E-05  2.01E-04  0.00E+00  0.00E+00  1.21E-05  2.13E-04  2.39E-03  0.94143
    422.  23.697  6.94E-07  1.24E-05  1.14E-05  2.04E-04  0.00E+00  0.00E+00  1.21E-05  2.16E-04  2.41E-03  0.94116
    424.  23.585  6.99E-07  1.26E-05  1.15E-05  2.06E-04  0.00E+00  0.00E+00  1.22E-05  2.19E-04  2.44E-03  0.94088
    426.  23.474  7.04E-07  1.28E-05  1.15E-05  2.08E-04  0.00E+00  0.00E+00  1.22E-05  2.21E-04  2.46E-03  0.94061
    428.  23.364  7.09E-07  1.30E-05  1.15E-05  2.11E-04  0.00E+00  0.00E+00  1.22E-05  2.24E-04  2.48E-03  0.94034
    430.  23.256  7.14E-07  1.32E-05  1.15E-05  2.13E-04  0.00E+00  0.00E+00  1.23E-05  2.27E-04  2.51E-03  0.94007
    432.  23.148  7.19E-07  1.34E-05  1.16E-05  2.16E-04  0.00E+00  0.00E+00  1.23E-05  2.29E-04  2.53E-03  0.93981
    434.  23.041  7.24E-07  1.36E-05  1.16E-05  2.18E-04  0.00E+00  0.00E+00  1.23E-05  2.32E-04  2.56E-03  0.93954
    436.  22.936  7.29E-07  1.39E-05  1.16E-05  2.21E-04  0.00E+00  0.00E+00  1.24E-05  2.35E-04  2.58E-03  0.93928
    438.  22.831  7.34E-07  1.41E-05  1.16E-05  2.23E-04  0.00E+00  0.00E+00  1.24E-05  2.38E-04  2.61E-03  0.93902
    440.  22.727  7.38E-07  1.43E-05  1.17E-05  2.26E-04  0.00E+00  0.00E+00  1.24E-05  2.40E-04  2.63E-03  0.93877
    442.  22.624  7.43E-07  1.45E-05  1.17E-05  2.29E-04  0.00E+00  0.00E+00  1.24E-05  2.43E-04  2.66E-03  0.93850
    444.  22.523  7.48E-07  1.47E-05  1.17E-05  2.31E-04  0.00E+00  0.00E+00  1.25E-05  2.46E-04  2.68E-03  0.93825
    446.  22.422  7.53E-07  1.50E-05  1.17E-05  2.34E-04  0.00E+00  0.00E+00  1.25E-05  2.49E-04  2.71E-03  0.93798
    448.  22.321  7.57E-07  1.52E-05  1.18E-05  2.36E-04  0.00E+00  0.00E+00  1.25E-05  2.51E-04  2.73E-03  0.93772
    450.  22.222  7.62E-07  1.54E-05  1.18E-05  2.39E-04  0.00E+00  0.00E+00  1.26E-05  2.54E-04  2.76E-03  0.93748
    452.  22.124  7.67E-07  1.57E-05  1.18E-05  2.41E-04  0.00E+00  0.00E+00  1.26E-05  2.57E-04  2.78E-03  0.93722
    454.  22.026  7.71E-07  1.59E-05  1.18E-05  2.44E-04  0.00E+00  0.00E+00  1.26E-05  2.60E-04  2.81E-03  0.93696
    456.  21.930  7.75E-07  1.61E-05  1.19E-05  2.47E-04  0.00E+00  0.00E+00  1.26E-05  2.63E-04  2.83E-03  0.93673
    458.  21.834  7.80E-07  1.64E-05  1.19E-05  2.49E-04  0.00E+00  0.00E+00  1.27E-05  2.66E-04  2.86E-03  0.93647
    460.  21.739  7.84E-07  1.66E-05  1.19E-05  2.52E-04  0.00E+00  0.00E+00  1.27E-05  2.68E-04  2.88E-03  0.93623
    462.  21.645  7.88E-07  1.68E-05  1.19E-05  2.54E-04  0.00E+00  0.00E+00  1.27E-05  2.71E-04  2.91E-03  0.93602
    464.  21.552  7.92E-07  1.71E-05  1.19E-05  2.57E-04  0.00E+00  0.00E+00  1.27E-05  2.74E-04  2.93E-03  0.93579
    466.  21.459  7.97E-07  1.73E-05  1.20E-05  2.60E-04  0.00E+00  0.00E+00  1.28E-05  2.77E-04  2.96E-03  0.93556
    468.  21.368  8.00E-07  1.75E-05  1.20E-05  2.62E-04  0.00E+00  0.00E+00  1.28E-05  2.80E-04  2.99E-03  0.93538
    470.  21.277  8.10E-07  1.79E-05  1.20E-05  2.65E-04  0.00E+00  0.00E+00  1.28E-05  2.83E-04  3.01E-03  0.93466
    472.  21.186  8.12E-07  1.81E-05  1.20E-05  2.67E-04  0.00E+00  0.00E+00  1.28E-05  2.86E-04  3.04E-03  0.93453
    474.  21.097  8.03E-07  1.81E-05  1.20E-05  2.70E-04  0.00E+00  0.00E+00  1.28E-05  2.89E-04  3.06E-03  0.93541
    476.  21.008  8.04E-07  1.82E-05  1.21E-05  2.73E-04  0.00E+00  0.00E+00  1.29E-05  2.91E-04  3.09E-03  0.93546
    478.  20.921  8.04E-07  1.84E-05  1.21E-05  2.76E-04  0.00E+00  0.00E+00  1.29E-05  2.94E-04  3.11E-03  0.93551
    480.  20.833  8.06E-07  1.86E-05  1.21E-05  2.79E-04  0.00E+00  0.00E+00  1.29E-05  2.97E-04  3.14E-03  0.93549
    482.  20.747  8.05E-07  1.87E-05  1.21E-05  2.81E-04  0.00E+00  0.00E+00  1.29E-05  3.00E-04  3.17E-03  0.93564
    484.  20.661  8.06E-07  1.89E-05  1.21E-05  2.84E-04  0.00E+00  0.00E+00  1.29E-05  3.03E-04  3.19E-03  0.93564
    486.  20.576  8.05E-07  1.90E-05  1.22E-05  2.87E-04  0.00E+00  0.00E+00  1.30E-05  3.06E-04  3.22E-03  0.93576
    488.  20.492  8.06E-07  1.92E-05  1.22E-05  2.90E-04  0.00E+00  0.00E+00  1.30E-05  3.09E-04  3.24E-03  0.93578
    490.  20.408  8.06E-07  1.94E-05  1.22E-05  2.93E-04  0.00E+00  0.00E+00  1.30E-05  3.12E-04  3.27E-03  0.93580
    492.  20.325  8.06E-07  1.95E-05  1.22E-05  2.95E-04  0.00E+00  0.00E+00  1.30E-05  3.15E-04  3.30E-03  0.93587
    494.  20.243  8.07E-07  1.97E-05  1.22E-05  2.98E-04  0.00E+00  0.00E+00  1.30E-05  3.18E-04  3.32E-03  0.93590
    496.  20.161  8.06E-07  1.98E-05  1.22E-05  3.01E-04  0.00E+00  0.00E+00  1.30E-05  3.21E-04  3.35E-03  0.93599
    498.  20.080  8.06E-07  2.00E-05  1.22E-05  3.04E-04  0.00E+00  0.00E+00  1.31E-05  3.24E-04  3.37E-03  0.93605
  iv          500
1                                             RADIANCE(WATTS/CM2-STER-XXX)
0  FREQ   WAVLEN    PATH THERMAL      SURFACE EMISSION    SURFACE REFLECTED     TOTAL RADIANCE   INTEGRAL    TOTAL
  (CM-1) (MICRN)    (CM-1)   (MICRN)    (CM-1)   (MICRN)    (CM-1)   (MICRN)    (CM-1)   (MICRN)    (CM-1)   TRANS

    500.  20.000  8.07E-07  2.02E-05  1.23E-05  3.07E-04  0.00E+00  0.00E+00  1.31E-05  3.27E-04  3.40E-03  0.93608
    502.  19.920  8.06E-07  2.03E-05  1.23E-05  3.09E-04  0.00E+00  0.00E+00  1.31E-05  3.30E-04  3.43E-03  0.93616
    504.  19.841  8.08E-07  2.05E-05  1.23E-05  3.12E-04  0.00E+00  0.00E+00  1.31E-05  3.33E-04  3.45E-03  0.93606
    506.  19.763  8.10E-07  2.07E-05  1.23E-05  3.15E-04  0.00E+00  0.00E+00  1.31E-05  3.36E-04  3.48E-03  0.93591
    508.  19.685  8.73E-07  2.25E-05  1.22E-05  3.16E-04  0.00E+00  0.00E+00  1.31E-05  3.38E-04  3.50E-03  0.93035
    510.  19.608  8.45E-07  2.20E-05  1.23E-05  3.20E-04  0.00E+00  0.00E+00  1.31E-05  3.42E-04  3.53E-03  0.93291
    512.  19.531  8.39E-07  2.20E-05  1.23E-05  3.23E-04  0.00E+00  0.00E+00  1.31E-05  3.45E-04  3.56E-03  0.93346
    514.  19.455  8.55E-07  2.26E-05  1.23E-05  3.25E-04  0.00E+00  0.00E+00  1.31E-05  3.47E-04  3.58E-03  0.93200
    516.  19.380  8.55E-07  2.28E-05  1.23E-05  3.28E-04  0.00E+00  0.00E+00  1.32E-05  3.50E-04  3.61E-03  0.93204
    518.  19.305  8.95E-07  2.40E-05  1.23E-05  3.29E-04  0.00E+00  0.00E+00  1.32E-05  3.53E-04  3.64E-03  0.92835
    520.  19.231  9.29E-07  2.51E-05  1.22E-05  3.31E-04  0.00E+00  0.00E+00  1.32E-05  3.56E-04  3.66E-03  0.92521
    522.  19.157  9.17E-07  2.50E-05  1.23E-05  3.34E-04  0.00E+00  0.00E+00  1.32E-05  3.59E-04  3.69E-03  0.92630
    524.  19.084  9.89E-07  2.72E-05  1.22E-05  3.34E-04  0.00E+00  0.00E+00  1.32E-05  3.62E-04  3.71E-03  0.91955
    526.  19.011  1.04E-06  2.88E-05  1.21E-05  3.35E-04  0.00E+00  0.00E+00  1.32E-05  3.64E-04  3.74E-03  0.91468
    528.  18.939  1.00E-06  2.79E-05  1.22E-05  3.39E-04  0.00E+00  0.00E+00  1.32E-05  3.67E-04  3.77E-03  0.91827
    530.  18.868  1.08E-06  3.03E-05  1.21E-05  3.39E-04  0.00E+00  0.00E+00  1.32E-05  3.70E-04  3.79E-03  0.91089
    532.  18.797  1.08E-06  3.06E-05  1.21E-05  3.42E-04  0.00E+00  0.00E+00  1.32E-05  3.73E-04  3.82E-03  0.91049
    534.  18.727  1.00E-06  2.85E-05  1.22E-05  3.48E-04  0.00E+00  0.00E+00  1.32E-05  3.76E-04  3.85E-03  0.91820
    536.  18.657  1.01E-06  2.91E-05  1.22E-05  3.50E-04  0.00E+00  0.00E+00  1.32E-05  3.79E-04  3.87E-03  0.91688
    538.  18.587  1.03E-06  2.98E-05  1.22E-05  3.52E-04  0.00E+00  0.00E+00  1.32E-05  3.82E-04  3.90E-03  0.91524
    540.  18.519  9.58E-07  2.79E-05  1.23E-05  3.58E-04  0.00E+00  0.00E+00  1.32E-05  3.86E-04  3.93E-03  0.92219
    542.  18.450  9.18E-07  2.70E-05  1.23E-05  3.62E-04  0.00E+00  0.00E+00  1.32E-05  3.89E-04  3.95E-03  0.92647
    544.  18.382  3.14E-06  9.29E-05  9.43E-06  2.79E-04  0.00E+00  0.00E+00  1.26E-05  3.72E-04  3.98E-03  0.70846
    546.  18.315  2.96E-06  8.82E-05  9.73E-06  2.90E-04  0.00E+00  0.00E+00  1.27E-05  3.78E-04  4.00E-03  0.73066
    548.  18.248  1.27E-06  3.82E-05  1.19E-05  3.58E-04  0.00E+00  0.00E+00  1.32E-05  3.96E-04  4.03E-03  0.89422
    550.  18.182  1.20E-06  3.63E-05  1.20E-05  3.63E-04  0.00E+00  0.00E+00  1.32E-05  3.99E-04  4.06E-03  0.90010
    552.  18.116  1.19E-06  3.62E-05  1.20E-05  3.66E-04  0.00E+00  0.00E+00  1.32E-05  4.02E-04  4.08E-03  0.90169
    554.  18.051  1.25E-06  3.82E-05  1.19E-05  3.67E-04  0.00E+00  0.00E+00  1.32E-05  4.05E-04  4.11E-03  0.89651
    556.  17.986  1.44E-06  4.46E-05  1.17E-05  3.62E-04  0.00E+00  0.00E+00  1.31E-05  4.06E-04  4.13E-03  0.87825
    558.  17.921  1.55E-06  4.83E-05  1.16E-05  3.61E-04  0.00E+00  0.00E+00  1.31E-05  4.09E-04  4.16E-03  0.86856
    560.  17.857  1.52E-06  4.76E-05  1.16E-05  3.65E-04  0.00E+00  0.00E+00  1.31E-05  4.12E-04  4.19E-03  0.87216
    562.  17.794  1.67E-06  5.28E-05  1.14E-05  3.61E-04  0.00E+00  0.00E+00  1.31E-05  4.14E-04  4.21E-03  0.85834
    564.  17.730  2.01E-06  6.39E-05  1.10E-05  3.51E-04  0.00E+00  0.00E+00  1.30E-05  4.15E-04  4.24E-03  0.82664
    566.  17.668  2.25E-06  7.20E-05  1.07E-05  3.44E-04  0.00E+00  0.00E+00  1.30E-05  4.16E-04  4.27E-03  0.80471
    568.  17.606  2.57E-06  8.28E-05  1.03E-05  3.33E-04  0.00E+00  0.00E+00  1.29E-05  4.16E-04  4.29E-03  0.77413
    570.  17.544  3.06E-06  9.93E-05  9.68E-06  3.14E-04  0.00E+00  0.00E+00  1.27E-05  4.14E-04  4.32E-03  0.72593
    572.  17.483  3.44E-06  1.13E-04  9.15E-06  2.99E-04  0.00E+00  0.00E+00  1.26E-05  4.12E-04  4.34E-03  0.68649
    574.  17.422  4.15E-06  1.37E-04  8.21E-06  2.71E-04  0.00E+00  0.00E+00  1.24E-05  4.07E-04  4.37E-03  0.61598
    576.  17.361  4.94E-06  1.64E-04  7.04E-06  2.34E-04  0.00E+00  0.00E+00  1.20E-05  3.97E-04  4.39E-03  0.52834
    578.  17.301  5.50E-06  1.84E-04  6.10E-06  2.04E-04  0.00E+00  0.00E+00  1.16E-05  3.87E-04  4.41E-03  0.45754
    580.  17.241  5.95E-06  2.00E-04  5.42E-06  1.82E-04  0.00E+00  0.00E+00  1.14E-05  3.83E-04  4.44E-03  0.40706
    582.  17.182  6.98E-06  2.36E-04  3.85E-06  1.31E-04  0.00E+00  0.00E+00  1.08E-05  3.67E-04  4.46E-03  0.28929
    584.  17.123  6.83E-06  2.33E-04  3.67E-06  1.25E-04  0.00E+00  0.00E+00  1.05E-05  3.58E-04  4.48E-03  0.27532
    586.  17.065  7.18E-06  2.47E-04  2.57E-06  8.82E-05  0.00E+00  0.00E+00  9.75E-06  3.35E-04  4.50E-03  0.19286
    588.  17.007  7.26E-06  2.51E-04  2.72E-06  9.40E-05  0.00E+00  0.00E+00  9.97E-06  3.45E-04  4.52E-03  0.20424
    590.  16.949  7.26E-06  2.53E-04  1.91E-06  6.63E-05  0.00E+00  0.00E+00  9.17E-06  3.19E-04  4.54E-03  0.14323
    592.  16.892  7.48E-06  2.62E-04  1.82E-06  6.37E-05  0.00E+00  0.00E+00  9.30E-06  3.26E-04  4.56E-03  0.13664
    594.  16.835  7.46E-06  2.63E-04  6.42E-07  2.27E-05  0.00E+00  0.00E+00  8.10E-06  2.86E-04  4.57E-03  0.04829
    596.  16.779  7.04E-06  2.50E-04  1.29E-07  4.58E-06  0.00E+00  0.00E+00  7.17E-06  2.55E-04  4.59E-03  0.00970
    598.  16.722  7.00E-06  2.50E-04  2.40E-07  8.59E-06  0.00E+00  0.00E+00  7.24E-06  2.59E-04  4.60E-03  0.01809
  iv          600
1                                             RADIANCE(WATTS/CM2-STER-XXX)
0  FREQ   WAVLEN    PATH THERMAL      SURFACE EMISSION    SURFACE REFLECTED     TOTAL RADIANCE   INTEGRAL    TOTAL
  (CM-1) (MICRN)    (CM-1)   (MICRN)    (CM-1)   (MICRN)    (CM-1)   (MICRN)    (CM-1)   (MICRN)    (CM-1)   TRANS

    600.  16.667  7.60E-06  2.74E-04  5.11E-07  1.84E-05  0.00E+00  0.00E+00  8.11E-06  2.92E-04  4.62E-03  0.03847
    602.  16.611  7.10E-06  2.57E-04  4.31E-07  1.56E-05  0.00E+00  0.00E+00  7.53E-06  2.73E-04  4.63E-03  0.03247
    604.  16.556  7.22E-06  2.63E-04  1.58E-07  5.77E-06  0.00E+00  0.00E+00  7.37E-06  2.69E-04  4.65E-03  0.01192
    606.  16.502  6.55E-06  2.40E-04  9.08E-08  3.33E-06  0.00E+00  0.00E+00  6.64E-06  2.44E-04  4.66E-03  0.00685
    608.  16.447  6.51E-06  2.41E-04  8.34E-08  3.08E-06  0.00E+00  0.00E+00  6.59E-06  2.44E-04  4.67E-03  0.00629
    610.  16.393  6.84E-06  2.54E-04  8.53E-08  3.17E-06  0.00E+00  0.00E+00  6.92E-06  2.58E-04  4.69E-03  0.00645
    612.  16.340  6.96E-06  2.61E-04  1.79E-07  6.70E-06  0.00E+00  0.00E+00  7.14E-06  2.68E-04  4.70E-03  0.01353
    614.  16.287  6.36E-06  2.40E-04  4.37E-08  1.65E-06  0.00E+00  0.00E+00  6.40E-06  2.41E-04  4.71E-03  0.00330
    616.  16.234  5.42E-06  2.06E-04  1.13E-09  4.28E-08  0.00E+00  0.00E+00  5.43E-06  2.06E-04  4.72E-03  0.00009
    618.  16.181  4.96E-06  1.89E-04  1.03E-12  3.94E-11  0.00E+00  0.00E+00  4.96E-06  1.89E-04  4.73E-03  0.00000
    620.  16.129  6.20E-06  2.38E-04  1.72E-08  6.63E-07  0.00E+00  0.00E+00  6.22E-06  2.39E-04  4.75E-03  0.00131
    622.  16.077  5.98E-06  2.31E-04  1.48E-08  5.74E-07  0.00E+00  0.00E+00  6.00E-06  2.32E-04  4.76E-03  0.00113
    624.  16.026  5.54E-06  2.16E-04  7.32E-09  2.85E-07  0.00E+00  0.00E+00  5.55E-06  2.16E-04  4.77E-03  0.00056
    626.  15.974  5.45E-06  2.13E-04  1.14E-09  4.47E-08  0.00E+00  0.00E+00  5.45E-06  2.14E-04  4.78E-03  0.00009
    628.  15.924  5.03E-06  1.98E-04  3.55E-11  1.40E-09  0.00E+00  0.00E+00  5.03E-06  1.98E-04  4.79E-03  0.00000
    630.  15.873  4.93E-06  1.96E-04  1.43E-11  5.66E-10  0.00E+00  0.00E+00  4.93E-06  1.96E-04  4.80E-03  0.00000
    632.  15.823  4.81E-06  1.92E-04  1.11E-12  4.42E-11  0.00E+00  0.00E+00  4.81E-06  1.92E-04  4.81E-03  0.00000
    634.  15.773  4.72E-06  1.90E-04  9.15E-15  3.68E-13  0.00E+00  0.00E+00  4.72E-06  1.90E-04  4.82E-03  0.00000
    636.  15.723  4.62E-06  1.87E-04  3.43E-16  1.39E-14  0.00E+00  0.00E+00  4.62E-06  1.87E-04  4.83E-03  0.00000
    638.  15.674  4.57E-06  1.86E-04  4.28E-18  1.74E-16  0.00E+00  0.00E+00  4.57E-06  1.86E-04  4.84E-03  0.00000
    640.  15.625  4.54E-06  1.86E-04  1.14E-20  4.68E-19  0.00E+00  0.00E+00  4.54E-06  1.86E-04  4.85E-03  0.00000
    642.  15.576  4.51E-06  1.86E-04  2.15E-21  8.85E-20  0.00E+00  0.00E+00  4.51E-06  1.86E-04  4.86E-03  0.00000
    644.  15.528  4.49E-06  1.86E-04  6.41E-25  2.66E-23  0.00E+00  0.00E+00  4.49E-06  1.86E-04  4.87E-03  0.00000
    646.  15.480  4.47E-06  1.86E-04  6.70E-29  2.80E-27  0.00E+00  0.00E+00  4.47E-06  1.86E-04  4.87E-03  0.00000
    648.  15.432  4.45E-06  1.87E-04  2.15E-33  9.03E-32  0.00E+00  0.00E+00  4.45E-06  1.87E-04  4.88E-03  0.00000
    650.  15.385  4.43E-06  1.87E-04  0.00E+00  0.00E+00  0.00E+00  0.00E+00  4.43E-06  1.87E-04  4.89E-03  0.00000
    652.  15.337  4.41E-06  1.87E-04  7.88E-36  3.35E-34  0.00E+00  0.00E+00  4.41E-06  1.87E-04  4.90E-03  0.00000
    654.  15.291  4.39E-06  1.88E-04  3.03E-30  1.30E-28  0.00E+00  0.00E+00  4.39E-06  1.88E-04  4.91E-03  0.00000
    656.  15.244  4.37E-06  1.88E-04  3.03E-30  1.31E-28  0.00E+00  0.00E+00  4.37E-06  1.88E-04  4.92E-03  0.00000
    658.  15.198  4.35E-06  1.88E-04  1.12E-36  4.84E-35  0.00E+00  0.00E+00  4.35E-06  1.88E-04  4.93E-03  0.00000
    660.  15.152  4.33E-06  1.89E-04  1.83E-36  7.97E-35  0.00E+00  0.00E+00  4.33E-06  1.89E-04  4.94E-03  0.00000
    662.  15.106  4.31E-06  1.89E-04  2.56E-37  1.12E-35  0.00E+00  0.00E+00  4.31E-06  1.89E-04  4.94E-03  0.00000
    664.  15.060  4.30E-06  1.89E-04  0.00E+00  0.00E+00  0.00E+00  0.00E+00  4.30E-06  1.89E-04  4.95E-03  0.00000
    666.  15.015  4.28E-06  1.90E-04  0.00E+00  0.00E+00  0.00E+00  0.00E+00  4.28E-06  1.90E-04  4.96E-03  0.00000
    668.  14.970  4.26E-06  1.90E-04  0.00E+00  0.00E+00  0.00E+00  0.00E+00  4.26E-06  1.90E-04  4.97E-03  0.00000
    670.  14.925  4.24E-06  1.90E-04  0.00E+00  0.00E+00  0.00E+00  0.00E+00  4.24E-06  1.90E-04  4.98E-03  0.00000
    672.  14.881  4.22E-06  1.91E-04  0.00E+00  0.00E+00  0.00E+00  0.00E+00  4.22E-06  1.91E-04  4.99E-03  0.00000
    674.  14.837  4.20E-06  1.91E-04  0.00E+00  0.00E+00  0.00E+00  0.00E+00  4.20E-06  1.91E-04  5.00E-03  0.00000
    676.  14.793  4.18E-06  1.91E-04  6.05E-36  2.76E-34  0.00E+00  0.00E+00  4.18E-06  1.91E-04  5.00E-03  0.00000
    678.  14.749  4.16E-06  1.91E-04  0.00E+00  0.00E+00  0.00E+00  0.00E+00  4.16E-06  1.91E-04  5.01E-03  0.00000
    680.  14.706  4.14E-06  1.92E-04  0.00E+00  0.00E+00  0.00E+00  0.00E+00  4.14E-06  1.92E-04  5.02E-03  0.00000
    682.  14.663  4.12E-06  1.92E-04  0.00E+00  0.00E+00  0.00E+00  0.00E+00  4.12E-06  1.92E-04  5.03E-03  0.00000
    684.  14.620  4.11E-06  1.92E-04  1.42E-32  6.66E-31  0.00E+00  0.00E+00  4.11E-06  1.92E-04  5.04E-03  0.00000
    686.  14.577  4.09E-06  1.92E-04  1.96E-33  9.23E-32  0.00E+00  0.00E+00  4.09E-06  1.92E-04  5.05E-03  0.00000
    688.  14.535  4.07E-06  1.93E-04  9.12E-35  4.32E-33  0.00E+00  0.00E+00  4.07E-06  1.93E-04  5.05E-03  0.00000
    690.  14.493  4.05E-06  1.93E-04  2.93E-32  1.39E-30  0.00E+00  0.00E+00  4.05E-06  1.93E-04  5.06E-03  0.00000
    692.  14.451  4.03E-06  1.93E-04  3.19E-22  1.53E-20  0.00E+00  0.00E+00  4.03E-06  1.93E-04  5.07E-03  0.00000
    694.  14.409  4.02E-06  1.93E-04  8.63E-21  4.15E-19  0.00E+00  0.00E+00  4.02E-06  1.93E-04  5.08E-03  0.00000
    696.  14.368  4.00E-06  1.94E-04  1.51E-19  7.33E-18  0.00E+00  0.00E+00  4.00E-06  1.94E-04  5.09E-03  0.00000
    698.  14.327  4.02E-06  1.96E-04  2.47E-18  1.20E-16  0.00E+00  0.00E+00  4.02E-06  1.96E-04  5.09E-03  0.00000
  iv          700
1                                             RADIANCE(WATTS/CM2-STER-XXX)
0  FREQ   WAVLEN    PATH THERMAL      SURFACE EMISSION    SURFACE REFLECTED     TOTAL RADIANCE   INTEGRAL    TOTAL
  (CM-1) (MICRN)    (CM-1)   (MICRN)    (CM-1)   (MICRN)    (CM-1)   (MICRN)    (CM-1)   (MICRN)    (CM-1)   TRANS

    700.  14.286  4.06E-06  1.99E-04  1.85E-14  9.07E-13  0.00E+00  0.00E+00  4.06E-06  1.99E-04  5.10E-03  0.00000
    702.  14.245  4.04E-06  1.99E-04  8.87E-16  4.37E-14  0.00E+00  0.00E+00  4.04E-06  1.99E-04  5.11E-03  0.00000
    704.  14.205  4.17E-06  2.07E-04  4.93E-13  2.44E-11  0.00E+00  0.00E+00  4.17E-06  2.07E-04  5.12E-03  0.00000
    706.  14.164  4.43E-06  2.21E-04  1.14E-11  5.69E-10  0.00E+00  0.00E+00  4.43E-06  2.21E-04  5.13E-03  0.00000
    708.  14.124  4.48E-06  2.24E-04  2.98E-11  1.49E-09  0.00E+00  0.00E+00  4.48E-06  2.24E-04  5.14E-03  0.00000
    710.  14.085  4.61E-06  2.32E-04  4.17E-10  2.10E-08  0.00E+00  0.00E+00  4.61E-06  2.32E-04  5.15E-03  0.00003
    712.  14.045  4.88E-06  2.47E-04  3.05E-09  1.55E-07  0.00E+00  0.00E+00  4.88E-06  2.47E-04  5.15E-03  0.00025
    714.  14.006  5.04E-06  2.57E-04  7.56E-09  3.86E-07  0.00E+00  0.00E+00  5.05E-06  2.57E-04  5.16E-03  0.00061
    716.  13.966  5.29E-06  2.71E-04  9.53E-09  4.89E-07  0.00E+00  0.00E+00  5.30E-06  2.72E-04  5.18E-03  0.00077
    718.  13.928  4.56E-06  2.35E-04  2.58E-09  1.33E-07  0.00E+00  0.00E+00  4.57E-06  2.35E-04  5.18E-03  0.00021
    720.  13.889  3.84E-06  1.99E-04  1.07E-16  5.55E-15  0.00E+00  0.00E+00  3.84E-06  1.99E-04  5.19E-03  0.00000
    722.  13.850  5.11E-06  2.67E-04  3.00E-08  1.56E-06  0.00E+00  0.00E+00  5.14E-06  2.68E-04  5.20E-03  0.00245
    724.  13.812  5.81E-06  3.04E-04  1.16E-07  6.06E-06  0.00E+00  0.00E+00  5.92E-06  3.10E-04  5.21E-03  0.00943
    726.  13.774  6.29E-06  3.31E-04  4.51E-07  2.38E-05  0.00E+00  0.00E+00  6.74E-06  3.55E-04  5.23E-03  0.03689
    728.  13.736  6.05E-06  3.20E-04  1.63E-07  8.62E-06  0.00E+00  0.00E+00  6.21E-06  3.29E-04  5.24E-03  0.01331
    730.  13.699  5.58E-06  2.97E-04  1.34E-07  7.12E-06  0.00E+00  0.00E+00  5.71E-06  3.05E-04  5.25E-03  0.01096
    732.  13.661  5.46E-06  2.93E-04  9.38E-08  5.03E-06  0.00E+00  0.00E+00  5.56E-06  2.98E-04  5.26E-03  0.00772
    734.  13.624  5.88E-06  3.17E-04  9.87E-08  5.32E-06  0.00E+00  0.00E+00  5.98E-06  3.22E-04  5.27E-03  0.00813
    736.  13.587  5.62E-06  3.04E-04  1.22E-07  6.61E-06  0.00E+00  0.00E+00  5.74E-06  3.11E-04  5.29E-03  0.01008
    738.  13.550  5.52E-06  3.01E-04  8.27E-08  4.50E-06  0.00E+00  0.00E+00  5.60E-06  3.05E-04  5.30E-03  0.00684
    740.  13.514  5.64E-06  3.09E-04  5.41E-08  2.97E-06  0.00E+00  0.00E+00  5.70E-06  3.12E-04  5.31E-03  0.00449
    742.  13.477  5.12E-06  2.82E-04  1.97E-07  1.09E-05  0.00E+00  0.00E+00  5.31E-06  2.93E-04  5.32E-03  0.01640
    744.  13.441  6.21E-06  3.44E-04  7.50E-07  4.15E-05  0.00E+00  0.00E+00  6.96E-06  3.85E-04  5.33E-03  0.06250
    746.  13.405  6.51E-06  3.62E-04  1.25E-06  6.97E-05  0.00E+00  0.00E+00  7.76E-06  4.32E-04  5.35E-03  0.10452
    748.  13.369  6.10E-06  3.41E-04  1.53E-06  8.57E-05  0.00E+00  0.00E+00  7.63E-06  4.27E-04  5.36E-03  0.12822
    750.  13.333  6.12E-06  3.44E-04  1.66E-06  9.37E-05  0.00E+00  0.00E+00  7.79E-06  4.38E-04  5.38E-03  0.13954
    752.  13.298  5.91E-06  3.34E-04  2.83E-06  1.60E-04  0.00E+00  0.00E+00  8.74E-06  4.94E-04  5.40E-03  0.23765
    754.  13.263  5.84E-06  3.32E-04  2.63E-06  1.50E-04  0.00E+00  0.00E+00  8.47E-06  4.82E-04  5.41E-03  0.22166
    756.  13.228  6.00E-06  3.43E-04  2.61E-06  1.49E-04  0.00E+00  0.00E+00  8.61E-06  4.92E-04  5.43E-03  0.22039
    758.  13.193  5.08E-06  2.92E-04  4.49E-06  2.58E-04  0.00E+00  0.00E+00  9.56E-06  5.50E-04  5.45E-03  0.37963
    760.  13.158  4.51E-06  2.60E-04  5.35E-06  3.09E-04  0.00E+00  0.00E+00  9.86E-06  5.69E-04  5.47E-03  0.45392
    762.  13.123  4.13E-06  2.40E-04  6.08E-06  3.53E-04  0.00E+00  0.00E+00  1.02E-05  5.93E-04  5.49E-03  0.51633
    764.  13.089  3.07E-06  1.79E-04  7.70E-06  4.50E-04  0.00E+00  0.00E+00  1.08E-05  6.29E-04  5.51E-03  0.65629
    766.  13.055  3.26E-06  1.91E-04  7.43E-06  4.36E-04  0.00E+00  0.00E+00  1.07E-05  6.27E-04  5.53E-03  0.63427
    768.  13.021  2.78E-06  1.64E-04  8.13E-06  4.79E-04  0.00E+00  0.00E+00  1.09E-05  6.44E-04  5.56E-03  0.69546
    770.  12.987  2.44E-06  1.44E-04  8.60E-06  5.10E-04  0.00E+00  0.00E+00  1.10E-05  6.54E-04  5.58E-03  0.73753
    772.  12.953  2.07E-06  1.24E-04  9.06E-06  5.40E-04  0.00E+00  0.00E+00  1.11E-05  6.64E-04  5.60E-03  0.77933
    774.  12.920  1.93E-06  1.16E-04  9.21E-06  5.51E-04  0.00E+00  0.00E+00  1.11E-05  6.67E-04  5.62E-03  0.79371
    776.  12.887  1.71E-06  1.03E-04  9.46E-06  5.70E-04  0.00E+00  0.00E+00  1.12E-05  6.73E-04  5.64E-03  0.81764
    778.  12.853  1.43E-06  8.67E-05  9.81E-06  5.94E-04  0.00E+00  0.00E+00  1.12E-05  6.81E-04  5.67E-03  0.85039
    780.  12.821  1.36E-06  8.29E-05  9.88E-06  6.01E-04  0.00E+00  0.00E+00  1.12E-05  6.84E-04  5.69E-03  0.85773
    782.  12.788  1.40E-06  8.55E-05  9.78E-06  5.98E-04  0.00E+00  0.00E+00  1.12E-05  6.83E-04  5.71E-03  0.85135
    784.  12.755  1.26E-06  7.74E-05  9.93E-06  6.10E-04  0.00E+00  0.00E+00  1.12E-05  6.88E-04  5.73E-03  0.86698
    786.  12.723  1.06E-06  6.58E-05  1.02E-05  6.29E-04  0.00E+00  0.00E+00  1.12E-05  6.95E-04  5.76E-03  0.89078
    788.  12.690  1.02E-06  6.33E-05  1.02E-05  6.34E-04  0.00E+00  0.00E+00  1.12E-05  6.97E-04  5.78E-03  0.89534
    790.  12.658  1.55E-06  9.70E-05  9.42E-06  5.88E-04  0.00E+00  0.00E+00  1.10E-05  6.85E-04  5.80E-03  0.82881
    792.  12.626  4.40E-06  2.76E-04  4.66E-06  2.92E-04  0.00E+00  0.00E+00  9.05E-06  5.68E-04  5.82E-03  0.41079
    794.  12.594  1.68E-06  1.06E-04  9.21E-06  5.80E-04  0.00E+00  0.00E+00  1.09E-05  6.86E-04  5.84E-03  0.81426
    796.  12.563  1.12E-06  7.12E-05  9.92E-06  6.28E-04  0.00E+00  0.00E+00  1.10E-05  7.00E-04  5.86E-03  0.87922
    798.  12.531  1.26E-06  8.05E-05  9.68E-06  6.16E-04  0.00E+00  0.00E+00  1.09E-05  6.97E-04  5.88E-03  0.86035
  iv          800
1                                             RADIANCE(WATTS/CM2-STER-XXX)
0  FREQ   WAVLEN    PATH THERMAL      SURFACE EMISSION    SURFACE REFLECTED     TOTAL RADIANCE   INTEGRAL    TOTAL
  (CM-1) (MICRN)    (CM-1)   (MICRN)    (CM-1)   (MICRN)    (CM-1)   (MICRN)    (CM-1)   (MICRN)    (CM-1)   TRANS

    800.  12.500  1.15E-06  7.35E-05  9.82E-06  6.29E-04  0.00E+00  0.00E+00  1.10E-05  7.02E-04  5.91E-03  0.87552
    802.  12.469  1.33E-06  8.57E-05  9.53E-06  6.13E-04  0.00E+00  0.00E+00  1.09E-05  6.99E-04  5.93E-03  0.85164
    804.  12.438  1.17E-06  7.59E-05  9.74E-06  6.29E-04  0.00E+00  0.00E+00  1.09E-05  7.05E-04  5.95E-03  0.87266
    806.  12.407  1.31E-06  8.48E-05  9.52E-06  6.18E-04  0.00E+00  0.00E+00  1.08E-05  7.03E-04  5.97E-03  0.85517
    808.  12.376  1.26E-06  8.21E-05  9.56E-06  6.24E-04  0.00E+00  0.00E+00  1.08E-05  7.06E-04  5.99E-03  0.86122
    810.  12.346  1.08E-06  7.06E-05  9.79E-06  6.42E-04  0.00E+00  0.00E+00  1.09E-05  7.13E-04  6.02E-03  0.88476
    812.  12.315  1.14E-06  7.50E-05  9.67E-06  6.38E-04  0.00E+00  0.00E+00  1.08E-05  7.13E-04  6.04E-03  0.87640
    814.  12.285  9.77E-07  6.47E-05  9.87E-06  6.54E-04  0.00E+00  0.00E+00  1.08E-05  7.19E-04  6.06E-03  0.89695
    816.  12.255  1.01E-06  6.76E-05  9.79E-06  6.52E-04  0.00E+00  0.00E+00  1.08E-05  7.20E-04  6.08E-03  0.89207
    818.  12.225  8.88E-07  5.94E-05  9.94E-06  6.65E-04  0.00E+00  0.00E+00  1.08E-05  7.24E-04  6.10E-03  0.90789
    820.  12.195  8.98E-07  6.04E-05  9.89E-06  6.65E-04  0.00E+00  0.00E+00  1.08E-05  7.26E-04  6.12E-03  0.90641
    822.  12.165  8.33E-07  5.63E-05  9.95E-06  6.72E-04  0.00E+00  0.00E+00  1.08E-05  7.29E-04  6.15E-03  0.91438
    824.  12.136  7.70E-07  5.23E-05  1.00E-05  6.79E-04  0.00E+00  0.00E+00  1.08E-05  7.32E-04  6.17E-03  0.92211
    826.  12.107  7.47E-07  5.10E-05  1.00E-05  6.83E-04  0.00E+00  0.00E+00  1.08E-05  7.34E-04  6.19E-03  0.92483
    828.  12.077  8.81E-07  6.04E-05  9.80E-06  6.72E-04  0.00E+00  0.00E+00  1.07E-05  7.32E-04  6.21E-03  0.90855
    830.  12.048  7.64E-07  5.27E-05  9.92E-06  6.84E-04  0.00E+00  0.00E+00  1.07E-05  7.36E-04  6.23E-03  0.92251
    832.  12.019  7.24E-07  5.01E-05  9.94E-06  6.88E-04  0.00E+00  0.00E+00  1.07E-05  7.38E-04  6.25E-03  0.92693
    834.  11.990  7.25E-07  5.04E-05  9.91E-06  6.89E-04  0.00E+00  0.00E+00  1.06E-05  7.40E-04  6.27E-03  0.92652
    836.  11.962  7.24E-07  5.06E-05  9.88E-06  6.90E-04  0.00E+00  0.00E+00  1.06E-05  7.41E-04  6.29E-03  0.92623
    838.  11.933  7.31E-07  5.13E-05  9.83E-06  6.91E-04  0.00E+00  0.00E+00  1.06E-05  7.42E-04  6.32E-03  0.92490
    840.  11.905  7.34E-07  5.18E-05  9.79E-06  6.91E-04  0.00E+00  0.00E+00  1.05E-05  7.43E-04  6.34E-03  0.92393
    842.  11.876  7.50E-07  5.32E-05  9.73E-06  6.90E-04  0.00E+00  0.00E+00  1.05E-05  7.43E-04  6.36E-03  0.92106
    844.  11.848  7.68E-07  5.47E-05  9.67E-06  6.89E-04  0.00E+00  0.00E+00  1.04E-05  7.43E-04  6.38E-03  0.91760
    846.  11.820  7.78E-07  5.57E-05  9.61E-06  6.88E-04  0.00E+00  0.00E+00  1.04E-05  7.44E-04  6.40E-03  0.91527
    848.  11.792  7.73E-07  5.56E-05  9.59E-06  6.90E-04  0.00E+00  0.00E+00  1.04E-05  7.45E-04  6.42E-03  0.91566
    850.  11.765  7.70E-07  5.57E-05  9.56E-06  6.91E-04  0.00E+00  0.00E+00  1.03E-05  7.46E-04  6.44E-03  0.91564
    852.  11.737  7.50E-07  5.45E-05  9.57E-06  6.94E-04  0.00E+00  0.00E+00  1.03E-05  7.49E-04  6.46E-03  0.91902
    854.  11.710  7.27E-07  5.31E-05  9.58E-06  6.98E-04  0.00E+00  0.00E+00  1.03E-05  7.51E-04  6.48E-03  0.92277
    856.  11.682  7.17E-07  5.25E-05  9.56E-06  7.01E-04  0.00E+00  0.00E+00  1.03E-05  7.53E-04  6.50E-03  0.92453
    858.  11.655  7.08E-07  5.21E-05  9.55E-06  7.03E-04  0.00E+00  0.00E+00  1.03E-05  7.55E-04  6.52E-03  0.92570
    860.  11.628  6.98E-07  5.16E-05  9.53E-06  7.05E-04  0.00E+00  0.00E+00  1.02E-05  7.56E-04  6.54E-03  0.92711
    862.  11.601  6.98E-07  5.19E-05  9.50E-06  7.06E-04  0.00E+00  0.00E+00  1.02E-05  7.58E-04  6.56E-03  0.92688
    864.  11.574  7.31E-07  5.45E-05  9.42E-06  7.03E-04  0.00E+00  0.00E+00  1.02E-05  7.58E-04  6.58E-03  0.92250
    866.  11.547  6.99E-07  5.25E-05  9.43E-06  7.07E-04  0.00E+00  0.00E+00  1.01E-05  7.60E-04  6.60E-03  0.92623
    868.  11.521  6.97E-07  5.25E-05  9.40E-06  7.08E-04  0.00E+00  0.00E+00  1.01E-05  7.61E-04  6.62E-03  0.92624
    870.  11.494  6.98E-07  5.29E-05  9.37E-06  7.09E-04  0.00E+00  0.00E+00  1.01E-05  7.62E-04  6.64E-03  0.92572
    872.  11.468  7.01E-07  5.33E-05  9.33E-06  7.09E-04  0.00E+00  0.00E+00  1.00E-05  7.63E-04  6.67E-03  0.92510
    874.  11.442  7.03E-07  5.37E-05  9.29E-06  7.10E-04  0.00E+00  0.00E+00  1.00E-05  7.64E-04  6.69E-03  0.92449
    876.  11.416  7.05E-07  5.41E-05  9.26E-06  7.10E-04  0.00E+00  0.00E+00  9.96E-06  7.64E-04  6.70E-03  0.92382
    878.  11.390  7.07E-07  5.45E-05  9.22E-06  7.11E-04  0.00E+00  0.00E+00  9.93E-06  7.65E-04  6.72E-03  0.92325
    880.  11.364  7.09E-07  5.49E-05  9.19E-06  7.11E-04  0.00E+00  0.00E+00  9.89E-06  7.66E-04  6.74E-03  0.92278
    882.  11.338  7.11E-07  5.53E-05  9.15E-06  7.12E-04  0.00E+00  0.00E+00  9.86E-06  7.67E-04  6.76E-03  0.92205
    884.  11.312  7.12E-07  5.57E-05  9.11E-06  7.12E-04  0.00E+00  0.00E+00  9.83E-06  7.68E-04  6.78E-03  0.92159
    886.  11.287  7.12E-07  5.59E-05  9.08E-06  7.13E-04  0.00E+00  0.00E+00  9.79E-06  7.69E-04  6.80E-03  0.92151
    888.  11.261  7.16E-07  5.64E-05  9.04E-06  7.13E-04  0.00E+00  0.00E+00  9.76E-06  7.69E-04  6.82E-03  0.92052
    890.  11.236  7.17E-07  5.68E-05  9.01E-06  7.13E-04  0.00E+00  0.00E+00  9.72E-06  7.70E-04  6.84E-03  0.92009
    892.  11.211  7.20E-07  5.73E-05  8.97E-06  7.14E-04  0.00E+00  0.00E+00  9.69E-06  7.71E-04  6.86E-03  0.91945
    894.  11.186  7.19E-07  5.74E-05  8.94E-06  7.15E-04  0.00E+00  0.00E+00  9.66E-06  7.72E-04  6.88E-03  0.91953
    896.  11.161  7.22E-07  5.80E-05  8.90E-06  7.15E-04  0.00E+00  0.00E+00  9.63E-06  7.73E-04  6.90E-03  0.91881
    898.  11.136  7.22E-07  5.82E-05  8.87E-06  7.15E-04  0.00E+00  0.00E+00  9.59E-06  7.74E-04  6.92E-03  0.91857
  iv          900
1                                             RADIANCE(WATTS/CM2-STER-XXX)
0  FREQ   WAVLEN    PATH THERMAL      SURFACE EMISSION    SURFACE REFLECTED     TOTAL RADIANCE   INTEGRAL    TOTAL
  (CM-1) (MICRN)    (CM-1)   (MICRN)    (CM-1)   (MICRN)    (CM-1)   (MICRN)    (CM-1)   (MICRN)    (CM-1)   TRANS

    900.  11.111  7.28E-07  5.90E-05  8.83E-06  7.15E-04  0.00E+00  0.00E+00  9.56E-06  7.74E-04  6.94E-03  0.91747
    902.  11.086  7.29E-07  5.93E-05  8.80E-06  7.16E-04  0.00E+00  0.00E+00  9.53E-06  7.75E-04  6.96E-03  0.91705
    904.  11.062  7.36E-07  6.02E-05  8.75E-06  7.15E-04  0.00E+00  0.00E+00  9.49E-06  7.75E-04  6.98E-03  0.91561
    906.  11.038  7.41E-07  6.08E-05  8.71E-06  7.15E-04  0.00E+00  0.00E+00  9.45E-06  7.76E-04  7.00E-03  0.91463
    908.  11.013  7.54E-07  6.22E-05  8.66E-06  7.14E-04  0.00E+00  0.00E+00  9.41E-06  7.76E-04  7.01E-03  0.91221
    910.  10.989  7.67E-07  6.35E-05  8.61E-06  7.13E-04  0.00E+00  0.00E+00  9.37E-06  7.76E-04  7.03E-03  0.90964
    912.  10.965  7.70E-07  6.41E-05  8.56E-06  7.12E-04  0.00E+00  0.00E+00  9.33E-06  7.76E-04  7.05E-03  0.90835
    914.  10.941  7.81E-07  6.52E-05  8.51E-06  7.11E-04  0.00E+00  0.00E+00  9.29E-06  7.76E-04  7.07E-03  0.90617
    916.  10.917  7.85E-07  6.59E-05  8.47E-06  7.11E-04  0.00E+00  0.00E+00  9.26E-06  7.77E-04  7.09E-03  0.90501
    918.  10.893  7.98E-07  6.73E-05  8.42E-06  7.10E-04  0.00E+00  0.00E+00  9.22E-06  7.77E-04  7.11E-03  0.90298
    920.  10.870  8.13E-07  6.88E-05  8.37E-06  7.08E-04  0.00E+00  0.00E+00  9.18E-06  7.77E-04  7.13E-03  0.90012
    922.  10.846  8.49E-07  7.21E-05  8.27E-06  7.03E-04  0.00E+00  0.00E+00  9.12E-06  7.75E-04  7.14E-03  0.89299
    924.  10.823  8.27E-07  7.06E-05  8.28E-06  7.07E-04  0.00E+00  0.00E+00  9.11E-06  7.78E-04  7.16E-03  0.89729
    926.  10.799  8.44E-07  7.24E-05  8.22E-06  7.05E-04  0.00E+00  0.00E+00  9.07E-06  7.78E-04  7.18E-03  0.89438
    928.  10.776  8.70E-07  7.49E-05  8.15E-06  7.02E-04  0.00E+00  0.00E+00  9.02E-06  7.77E-04  7.20E-03  0.88969
    930.  10.753  9.07E-07  7.85E-05  8.07E-06  6.98E-04  0.00E+00  0.00E+00  8.97E-06  7.76E-04  7.22E-03  0.88364
    932.  10.730  9.44E-07  8.20E-05  7.99E-06  6.94E-04  0.00E+00  0.00E+00  8.93E-06  7.76E-04  7.23E-03  0.87833
    934.  10.707  9.64E-07  8.41E-05  7.93E-06  6.92E-04  0.00E+00  0.00E+00  8.90E-06  7.76E-04  7.25E-03  0.87519
    936.  10.684  9.95E-07  8.72E-05  7.86E-06  6.88E-04  0.00E+00  0.00E+00  8.85E-06  7.76E-04  7.27E-03  0.87027
    938.  10.661  1.02E-06  9.02E-05  7.78E-06  6.85E-04  0.00E+00  0.00E+00  8.81E-06  7.75E-04  7.29E-03  0.86499
    940.  10.638  1.05E-06  9.27E-05  7.71E-06  6.81E-04  0.00E+00  0.00E+00  8.76E-06  7.74E-04  7.30E-03  0.86014
    942.  10.616  1.23E-06  1.09E-04  7.41E-06  6.57E-04  0.00E+00  0.00E+00  8.63E-06  7.66E-04  7.32E-03  0.82960
    944.  10.593  1.10E-06  9.78E-05  7.56E-06  6.74E-04  0.00E+00  0.00E+00  8.66E-06  7.72E-04  7.34E-03  0.84983
    946.  10.571  1.12E-06  1.00E-04  7.50E-06  6.71E-04  0.00E+00  0.00E+00  8.61E-06  7.71E-04  7.36E-03  0.84574
    948.  10.549  1.28E-06  1.15E-04  7.21E-06  6.48E-04  0.00E+00  0.00E+00  8.49E-06  7.63E-04  7.37E-03  0.81698
    950.  10.526  1.10E-06  9.96E-05  7.44E-06  6.72E-04  0.00E+00  0.00E+00  8.55E-06  7.71E-04  7.39E-03  0.84602
    952.  10.504  1.09E-06  9.92E-05  7.42E-06  6.73E-04  0.00E+00  0.00E+00  8.52E-06  7.72E-04  7.41E-03  0.84710
    954.  10.482  1.04E-06  9.46E-05  7.47E-06  6.80E-04  0.00E+00  0.00E+00  8.51E-06  7.74E-04  7.42E-03  0.85555
    956.  10.460  1.09E-06  1.00E-04  7.35E-06  6.72E-04  0.00E+00  0.00E+00  8.44E-06  7.72E-04  7.44E-03  0.84503
    958.  10.438  9.41E-07  8.63E-05  7.55E-06  6.93E-04  0.00E+00  0.00E+00  8.49E-06  7.80E-04  7.46E-03  0.87162
    960.  10.417  7.69E-07  7.09E-05  7.78E-06  7.17E-04  0.00E+00  0.00E+00  8.55E-06  7.88E-04  7.48E-03  0.90108
    962.  10.395  8.25E-07  7.63E-05  7.66E-06  7.09E-04  0.00E+00  0.00E+00  8.48E-06  7.85E-04  7.49E-03  0.89063
    964.  10.373  8.99E-07  8.36E-05  7.52E-06  6.99E-04  0.00E+00  0.00E+00  8.42E-06  7.82E-04  7.51E-03  0.87743
    966.  10.352  1.07E-06  9.96E-05  7.22E-06  6.74E-04  0.00E+00  0.00E+00  8.29E-06  7.74E-04  7.53E-03  0.84623
    968.  10.331  1.17E-06  1.09E-04  7.03E-06  6.59E-04  0.00E+00  0.00E+00  8.20E-06  7.68E-04  7.54E-03  0.82742
    970.  10.309  1.09E-06  1.03E-04  7.12E-06  6.70E-04  0.00E+00  0.00E+00  8.22E-06  7.73E-04  7.56E-03  0.84103
    972.  10.288  1.36E-06  1.29E-04  6.66E-06  6.29E-04  0.00E+00  0.00E+00  8.02E-06  7.58E-04  7.58E-03  0.78966
    974.  10.267  1.10E-06  1.04E-04  7.05E-06  6.69E-04  0.00E+00  0.00E+00  8.15E-06  7.73E-04  7.59E-03  0.83910
    976.  10.246  1.32E-06  1.25E-04  6.68E-06  6.36E-04  0.00E+00  0.00E+00  8.00E-06  7.62E-04  7.61E-03  0.79808
    978.  10.225  1.15E-06  1.10E-04  6.92E-06  6.61E-04  0.00E+00  0.00E+00  8.06E-06  7.71E-04  7.62E-03  0.82950
    980.  10.204  1.08E-06  1.04E-04  6.99E-06  6.72E-04  0.00E+00  0.00E+00  8.07E-06  7.75E-04  7.64E-03  0.84223
    982.  10.183  1.07E-06  1.03E-04  6.98E-06  6.73E-04  0.00E+00  0.00E+00  8.05E-06  7.76E-04  7.66E-03  0.84348
    984.  10.163  9.78E-07  9.47E-05  7.09E-06  6.86E-04  0.00E+00  0.00E+00  8.07E-06  7.81E-04  7.67E-03  0.86044
    986.  10.142  8.18E-07  7.95E-05  7.29E-06  7.08E-04  0.00E+00  0.00E+00  8.10E-06  7.88E-04  7.69E-03  0.88801
    988.  10.121  8.37E-07  8.17E-05  7.23E-06  7.06E-04  0.00E+00  0.00E+00  8.06E-06  7.87E-04  7.70E-03  0.88427
    990.  10.101  7.81E-07  7.66E-05  7.27E-06  7.13E-04  0.00E+00  0.00E+00  8.06E-06  7.89E-04  7.72E-03  0.89348
    992.  10.081  7.55E-07  7.43E-05  7.28E-06  7.16E-04  0.00E+00  0.00E+00  8.03E-06  7.90E-04  7.74E-03  0.89747
    994.  10.060  7.21E-07  7.13E-05  7.29E-06  7.20E-04  0.00E+00  0.00E+00  8.01E-06  7.92E-04  7.75E-03  0.90270
    996.  10.040  7.15E-07  7.09E-05  7.27E-06  7.21E-04  0.00E+00  0.00E+00  7.98E-06  7.92E-04  7.77E-03  0.90339
    998.  10.020  7.11E-07  7.08E-05  7.24E-06  7.21E-04  0.00E+00  0.00E+00  7.95E-06  7.92E-04  7.78E-03  0.90350
  iv         1000
1                                             RADIANCE(WATTS/CM2-STER-XXX)
0  FREQ   WAVLEN    PATH THERMAL      SURFACE EMISSION    SURFACE REFLECTED     TOTAL RADIANCE   INTEGRAL    TOTAL
  (CM-1) (MICRN)    (CM-1)   (MICRN)    (CM-1)   (MICRN)    (CM-1)   (MICRN)    (CM-1)   (MICRN)    (CM-1)   TRANS

   1000.  10.000  7.10E-07  7.10E-05  7.21E-06  7.21E-04  0.00E+00  0.00E+00  7.92E-06  7.92E-04  7.80E-03  0.90329
   1002.   9.980  7.16E-07  7.19E-05  7.17E-06  7.20E-04  0.00E+00  0.00E+00  7.88E-06  7.91E-04  7.82E-03  0.90196
   1004.   9.960  7.19E-07  7.25E-05  7.13E-06  7.19E-04  0.00E+00  0.00E+00  7.85E-06  7.91E-04  7.83E-03  0.90115
   1006.   9.940  7.22E-07  7.30E-05  7.10E-06  7.18E-04  0.00E+00  0.00E+00  7.82E-06  7.91E-04  7.85E-03  0.90031
   1008.   9.921  7.28E-07  7.40E-05  7.06E-06  7.17E-04  0.00E+00  0.00E+00  7.78E-06  7.91E-04  7.86E-03  0.89893
   1010.   9.901  7.35E-07  7.49E-05  7.02E-06  7.16E-04  0.00E+00  0.00E+00  7.75E-06  7.91E-04  7.88E-03  0.89742
   1012.   9.881  7.39E-07  7.57E-05  6.98E-06  7.15E-04  0.00E+00  0.00E+00  7.72E-06  7.90E-04  7.89E-03  0.89630
   1014.   9.862  7.41E-07  7.62E-05  6.94E-06  7.14E-04  0.00E+00  0.00E+00  7.69E-06  7.90E-04  7.91E-03  0.89563
   1016.   9.843  7.52E-07  7.77E-05  6.90E-06  7.12E-04  0.00E+00  0.00E+00  7.65E-06  7.90E-04  7.92E-03  0.89333
   1018.   9.823  7.62E-07  7.90E-05  6.85E-06  7.10E-04  0.00E+00  0.00E+00  7.62E-06  7.89E-04  7.94E-03  0.89117
   1020.   9.804  7.75E-07  8.06E-05  6.80E-06  7.08E-04  0.00E+00  0.00E+00  7.58E-06  7.88E-04  7.95E-03  0.88842
   1022.   9.785  7.92E-07  8.28E-05  6.75E-06  7.05E-04  0.00E+00  0.00E+00  7.54E-06  7.88E-04  7.97E-03  0.88485
   1024.   9.766  8.13E-07  8.52E-05  6.69E-06  7.01E-04  0.00E+00  0.00E+00  7.50E-06  7.86E-04  7.98E-03  0.88053
   1026.   9.747  8.36E-07  8.80E-05  6.62E-06  6.97E-04  0.00E+00  0.00E+00  7.46E-06  7.85E-04  8.00E-03  0.87561
   1028.   9.728  8.62E-07  9.11E-05  6.55E-06  6.93E-04  0.00E+00  0.00E+00  7.41E-06  7.84E-04  8.01E-03  0.87019
   1030.   9.709  8.94E-07  9.49E-05  6.47E-06  6.87E-04  0.00E+00  0.00E+00  7.37E-06  7.82E-04  8.03E-03  0.86312
   1032.   9.690  9.26E-07  9.86E-05  6.39E-06  6.81E-04  0.00E+00  0.00E+00  7.32E-06  7.80E-04  8.04E-03  0.85628
   1034.   9.671  9.59E-07  1.03E-04  6.31E-06  6.75E-04  0.00E+00  0.00E+00  7.27E-06  7.77E-04  8.06E-03  0.84872
   1036.   9.653  9.98E-07  1.07E-04  6.22E-06  6.67E-04  0.00E+00  0.00E+00  7.22E-06  7.75E-04  8.07E-03  0.83984
   1038.   9.634  1.03E-06  1.12E-04  6.13E-06  6.60E-04  0.00E+00  0.00E+00  7.16E-06  7.72E-04  8.09E-03  0.83108
   1040.   9.615  1.07E-06  1.15E-04  6.04E-06  6.53E-04  0.00E+00  0.00E+00  7.11E-06  7.69E-04  8.10E-03  0.82286
   1042.   9.597  1.10E-06  1.19E-04  5.95E-06  6.47E-04  0.00E+00  0.00E+00  7.05E-06  7.66E-04  8.12E-03  0.81454
   1044.   9.579  1.13E-06  1.23E-04  5.88E-06  6.40E-04  0.00E+00  0.00E+00  7.00E-06  7.63E-04  8.13E-03  0.80730
   1046.   9.560  1.18E-06  1.29E-04  5.76E-06  6.30E-04  0.00E+00  0.00E+00  6.94E-06  7.60E-04  8.14E-03  0.79475
   1048.   9.542  1.19E-06  1.31E-04  5.71E-06  6.27E-04  0.00E+00  0.00E+00  6.90E-06  7.58E-04  8.16E-03  0.79123
   1050.   9.524  1.35E-06  1.49E-04  5.40E-06  5.96E-04  0.00E+00  0.00E+00  6.75E-06  7.44E-04  8.17E-03  0.75185
   1052.   9.506  1.21E-06  1.34E-04  5.60E-06  6.20E-04  0.00E+00  0.00E+00  6.82E-06  7.54E-04  8.18E-03  0.78289
   1054.   9.488  1.20E-06  1.34E-04  5.59E-06  6.21E-04  0.00E+00  0.00E+00  6.79E-06  7.54E-04  8.20E-03  0.78429
   1056.   9.470  1.31E-06  1.46E-04  5.37E-06  5.99E-04  0.00E+00  0.00E+00  6.68E-06  7.45E-04  8.21E-03  0.75742
   1058.   9.452  1.14E-06  1.28E-04  5.63E-06  6.30E-04  0.00E+00  0.00E+00  6.77E-06  7.58E-04  8.22E-03  0.79751
   1060.   9.434  1.06E-06  1.19E-04  5.73E-06  6.44E-04  0.00E+00  0.00E+00  6.79E-06  7.63E-04  8.24E-03  0.81471
   1062.   9.416  1.03E-06  1.16E-04  5.75E-06  6.48E-04  0.00E+00  0.00E+00  6.78E-06  7.65E-04  8.25E-03  0.82128
   1064.   9.398  8.74E-07  9.90E-05  5.98E-06  6.77E-04  0.00E+00  0.00E+00  6.85E-06  7.76E-04  8.27E-03  0.85750
   1066.   9.381  1.01E-06  1.15E-04  5.72E-06  6.50E-04  0.00E+00  0.00E+00  6.73E-06  7.65E-04  8.28E-03  0.82484
   1068.   9.363  1.19E-06  1.35E-04  5.39E-06  6.15E-04  0.00E+00  0.00E+00  6.58E-06  7.50E-04  8.29E-03  0.78049
   1070.   9.346  1.29E-06  1.47E-04  5.19E-06  5.94E-04  0.00E+00  0.00E+00  6.48E-06  7.42E-04  8.31E-03  0.75480
   1072.   9.328  1.32E-06  1.52E-04  5.09E-06  5.85E-04  0.00E+00  0.00E+00  6.41E-06  7.37E-04  8.32E-03  0.74329
   1074.   9.311  1.24E-06  1.43E-04  5.22E-06  6.02E-04  0.00E+00  0.00E+00  6.46E-06  7.45E-04  8.33E-03  0.76534
   1076.   9.294  1.51E-06  1.75E-04  4.71E-06  5.45E-04  0.00E+00  0.00E+00  6.22E-06  7.20E-04  8.34E-03  0.69356
   1078.   9.276  1.25E-06  1.45E-04  5.15E-06  5.98E-04  0.00E+00  0.00E+00  6.40E-06  7.44E-04  8.36E-03  0.76210
   1080.   9.259  1.47E-06  1.72E-04  4.74E-06  5.53E-04  0.00E+00  0.00E+00  6.21E-06  7.25E-04  8.37E-03  0.70461
   1082.   9.242  1.41E-06  1.65E-04  4.84E-06  5.67E-04  0.00E+00  0.00E+00  6.25E-06  7.32E-04  8.38E-03  0.72323
   1084.   9.225  1.14E-06  1.34E-04  5.26E-06  6.18E-04  0.00E+00  0.00E+00  6.40E-06  7.52E-04  8.39E-03  0.78942
   1086.   9.208  1.25E-06  1.47E-04  5.06E-06  5.97E-04  0.00E+00  0.00E+00  6.31E-06  7.44E-04  8.41E-03  0.76228
   1088.   9.191  1.11E-06  1.32E-04  5.25E-06  6.21E-04  0.00E+00  0.00E+00  6.36E-06  7.53E-04  8.42E-03  0.79398
   1090.   9.174  1.02E-06  1.21E-04  5.36E-06  6.37E-04  0.00E+00  0.00E+00  6.38E-06  7.58E-04  8.43E-03  0.81466
   1092.   9.158  9.48E-07  1.13E-04  5.44E-06  6.49E-04  0.00E+00  0.00E+00  6.39E-06  7.62E-04  8.44E-03  0.83078
   1094.   9.141  8.81E-07  1.05E-04  5.50E-06  6.59E-04  0.00E+00  0.00E+00  6.38E-06  7.64E-04  8.46E-03  0.84444
   1096.   9.124  8.46E-07  1.02E-04  5.52E-06  6.63E-04  0.00E+00  0.00E+00  6.37E-06  7.65E-04  8.47E-03  0.85083
   1098.   9.107  8.24E-07  9.94E-05  5.52E-06  6.65E-04  0.00E+00  0.00E+00  6.34E-06  7.65E-04  8.48E-03  0.85430
  iv         1100
1                                             RADIANCE(WATTS/CM2-STER-XXX)
0  FREQ   WAVLEN    PATH THERMAL      SURFACE EMISSION    SURFACE REFLECTED     TOTAL RADIANCE   INTEGRAL    TOTAL
  (CM-1) (MICRN)    (CM-1)   (MICRN)    (CM-1)   (MICRN)    (CM-1)   (MICRN)    (CM-1)   (MICRN)    (CM-1)   TRANS

   1100.   9.091  8.06E-07  9.76E-05  5.51E-06  6.67E-04  0.00E+00  0.00E+00  6.32E-06  7.64E-04  8.50E-03  0.85713
   1102.   9.074  7.98E-07  9.69E-05  5.49E-06  6.66E-04  0.00E+00  0.00E+00  6.29E-06  7.63E-04  8.51E-03  0.85760
   1104.   9.058  7.88E-07  9.60E-05  5.47E-06  6.67E-04  0.00E+00  0.00E+00  6.26E-06  7.63E-04  8.52E-03  0.85930
   1106.   9.042  7.77E-07  9.51E-05  5.46E-06  6.68E-04  0.00E+00  0.00E+00  6.24E-06  7.63E-04  8.53E-03  0.86132
   1108.   9.025  7.72E-07  9.48E-05  5.44E-06  6.68E-04  0.00E+00  0.00E+00  6.21E-06  7.62E-04  8.55E-03  0.86167
   1110.   9.009  7.66E-07  9.44E-05  5.42E-06  6.68E-04  0.00E+00  0.00E+00  6.18E-06  7.62E-04  8.56E-03  0.86240
   1112.   8.993  7.61E-07  9.42E-05  5.39E-06  6.67E-04  0.00E+00  0.00E+00  6.16E-06  7.61E-04  8.57E-03  0.86255
   1114.   8.977  7.56E-07  9.38E-05  5.37E-06  6.67E-04  0.00E+00  0.00E+00  6.13E-06  7.61E-04  8.58E-03  0.86316
   1116.   8.961  7.48E-07  9.31E-05  5.36E-06  6.67E-04  0.00E+00  0.00E+00  6.10E-06  7.60E-04  8.59E-03  0.86437
   1118.   8.945  7.42E-07  9.27E-05  5.33E-06  6.67E-04  0.00E+00  0.00E+00  6.08E-06  7.60E-04  8.61E-03  0.86500
   1120.   8.929  7.35E-07  9.22E-05  5.31E-06  6.67E-04  0.00E+00  0.00E+00  6.05E-06  7.59E-04  8.62E-03  0.86575
   1122.   8.913  7.28E-07  9.17E-05  5.30E-06  6.67E-04  0.00E+00  0.00E+00  6.02E-06  7.58E-04  8.63E-03  0.86664
   1124.   8.897  7.21E-07  9.11E-05  5.28E-06  6.67E-04  0.00E+00  0.00E+00  6.00E-06  7.58E-04  8.64E-03  0.86761
   1126.   8.881  7.15E-07  9.07E-05  5.26E-06  6.66E-04  0.00E+00  0.00E+00  5.97E-06  7.57E-04  8.66E-03  0.86835
   1128.   8.865  7.09E-07  9.02E-05  5.24E-06  6.66E-04  0.00E+00  0.00E+00  5.95E-06  7.56E-04  8.67E-03  0.86910
   1130.   8.850  7.05E-07  9.00E-05  5.21E-06  6.65E-04  0.00E+00  0.00E+00  5.92E-06  7.55E-04  8.68E-03  0.86912
   1132.   8.834  7.00E-07  8.96E-05  5.19E-06  6.65E-04  0.00E+00  0.00E+00  5.89E-06  7.55E-04  8.69E-03  0.86948
   1134.   8.818  6.94E-07  8.93E-05  5.17E-06  6.64E-04  0.00E+00  0.00E+00  5.86E-06  7.54E-04  8.70E-03  0.86989
   1136.   8.803  6.89E-07  8.90E-05  5.15E-06  6.64E-04  0.00E+00  0.00E+00  5.83E-06  7.53E-04  8.71E-03  0.87025
   1138.   8.787  6.85E-07  8.87E-05  5.12E-06  6.63E-04  0.00E+00  0.00E+00  5.81E-06  7.52E-04  8.73E-03  0.87058
   1140.   8.772  6.80E-07  8.84E-05  5.10E-06  6.63E-04  0.00E+00  0.00E+00  5.78E-06  7.51E-04  8.74E-03  0.87076
   1142.   8.757  6.76E-07  8.82E-05  5.08E-06  6.62E-04  0.00E+00  0.00E+00  5.75E-06  7.50E-04  8.75E-03  0.87077
   1144.   8.741  6.73E-07  8.81E-05  5.05E-06  6.61E-04  0.00E+00  0.00E+00  5.72E-06  7.49E-04  8.76E-03  0.87056
   1146.   8.726  6.69E-07  8.79E-05  5.02E-06  6.60E-04  0.00E+00  0.00E+00  5.69E-06  7.48E-04  8.77E-03  0.87033
   1148.   8.711  6.65E-07  8.76E-05  5.00E-06  6.59E-04  0.00E+00  0.00E+00  5.66E-06  7.47E-04  8.78E-03  0.87019
   1150.   8.696  6.58E-07  8.71E-05  4.98E-06  6.58E-04  0.00E+00  0.00E+00  5.64E-06  7.45E-04  8.79E-03  0.87060
   1152.   8.681  6.44E-07  8.55E-05  4.97E-06  6.59E-04  0.00E+00  0.00E+00  5.61E-06  7.45E-04  8.81E-03  0.87266
   1154.   8.666  6.29E-07  8.38E-05  4.96E-06  6.60E-04  0.00E+00  0.00E+00  5.58E-06  7.44E-04  8.82E-03  0.87505
   1156.   8.651  6.16E-07  8.23E-05  4.94E-06  6.61E-04  0.00E+00  0.00E+00  5.56E-06  7.43E-04  8.83E-03  0.87706
   1158.   8.636  6.05E-07  8.11E-05  4.92E-06  6.60E-04  0.00E+00  0.00E+00  5.53E-06  7.41E-04  8.84E-03  0.87771
   1160.   8.621  5.96E-07  8.02E-05  4.90E-06  6.59E-04  0.00E+00  0.00E+00  5.49E-06  7.39E-04  8.85E-03  0.87757
   1162.   8.606  5.79E-07  7.82E-05  4.89E-06  6.61E-04  0.00E+00  0.00E+00  5.47E-06  7.39E-04  8.86E-03  0.88094
   1164.   8.591  5.56E-07  7.53E-05  4.90E-06  6.64E-04  0.00E+00  0.00E+00  5.46E-06  7.40E-04  8.87E-03  0.88701
   1166.   8.576  5.42E-07  7.36E-05  4.89E-06  6.65E-04  0.00E+00  0.00E+00  5.43E-06  7.39E-04  8.88E-03  0.88923
   1168.   8.562  5.28E-07  7.20E-05  4.88E-06  6.66E-04  0.00E+00  0.00E+00  5.41E-06  7.38E-04  8.89E-03  0.89134
   1170.   8.547  5.14E-07  7.04E-05  4.87E-06  6.66E-04  0.00E+00  0.00E+00  5.38E-06  7.37E-04  8.90E-03  0.89360
   1172.   8.532  5.00E-07  6.87E-05  4.86E-06  6.67E-04  0.00E+00  0.00E+00  5.36E-06  7.36E-04  8.91E-03  0.89612
   1174.   8.518  4.86E-07  6.70E-05  4.85E-06  6.68E-04  0.00E+00  0.00E+00  5.33E-06  7.35E-04  8.93E-03  0.89879
   1176.   8.503  4.71E-07  6.51E-05  4.84E-06  6.69E-04  0.00E+00  0.00E+00  5.31E-06  7.35E-04  8.94E-03  0.90165
   1178.   8.489  4.56E-07  6.33E-05  4.83E-06  6.71E-04  0.00E+00  0.00E+00  5.29E-06  7.34E-04  8.95E-03  0.90462
   1180.   8.475  4.44E-07  6.18E-05  4.82E-06  6.71E-04  0.00E+00  0.00E+00  5.26E-06  7.33E-04  8.96E-03  0.90659
   1182.   8.460  4.30E-07  6.01E-05  4.81E-06  6.72E-04  0.00E+00  0.00E+00  5.24E-06  7.32E-04  8.97E-03  0.90890
   1184.   8.446  4.17E-07  5.85E-05  4.80E-06  6.72E-04  0.00E+00  0.00E+00  5.21E-06  7.31E-04  8.98E-03  0.91118
   1186.   8.432  4.05E-07  5.70E-05  4.78E-06  6.73E-04  0.00E+00  0.00E+00  5.19E-06  7.30E-04  8.99E-03  0.91332
   1188.   8.418  3.92E-07  5.54E-05  4.77E-06  6.73E-04  0.00E+00  0.00E+00  5.16E-06  7.29E-04  9.00E-03  0.91559
   1190.   8.403  3.80E-07  5.38E-05  4.76E-06  6.74E-04  0.00E+00  0.00E+00  5.14E-06  7.28E-04  9.01E-03  0.91789
   1192.   8.389  3.67E-07  5.21E-05  4.75E-06  6.75E-04  0.00E+00  0.00E+00  5.12E-06  7.27E-04  9.02E-03  0.92025
   1194.   8.375  3.55E-07  5.06E-05  4.74E-06  6.75E-04  0.00E+00  0.00E+00  5.09E-06  7.26E-04  9.03E-03  0.92251
   1196.   8.361  3.43E-07  4.90E-05  4.72E-06  6.76E-04  0.00E+00  0.00E+00  5.07E-06  7.25E-04  9.04E-03  0.92472
   1198.   8.347  3.30E-07  4.74E-05  4.71E-06  6.76E-04  0.00E+00  0.00E+00  5.04E-06  7.24E-04  9.05E-03  0.92702
  iv         1200
1                                             RADIANCE(WATTS/CM2-STER-XXX)
0  FREQ   WAVLEN    PATH THERMAL      SURFACE EMISSION    SURFACE REFLECTED     TOTAL RADIANCE   INTEGRAL    TOTAL
  (CM-1) (MICRN)    (CM-1)   (MICRN)    (CM-1)   (MICRN)    (CM-1)   (MICRN)    (CM-1)   (MICRN)    (CM-1)   TRANS

   1200.   8.333  3.18E-07  4.59E-05  4.70E-06  6.77E-04  0.00E+00  0.00E+00  5.02E-06  7.23E-04  9.06E-03  0.92933
   1202.   8.319  3.07E-07  4.43E-05  4.69E-06  6.77E-04  0.00E+00  0.00E+00  4.99E-06  7.22E-04  9.07E-03  0.93154
   1204.   8.306  2.95E-07  4.28E-05  4.68E-06  6.78E-04  0.00E+00  0.00E+00  4.97E-06  7.21E-04  9.08E-03  0.93372
   1206.   8.292  2.84E-07  4.13E-05  4.66E-06  6.78E-04  0.00E+00  0.00E+00  4.95E-06  7.19E-04  9.09E-03  0.93589
   1208.   8.278  2.73E-07  3.98E-05  4.65E-06  6.79E-04  0.00E+00  0.00E+00  4.92E-06  7.18E-04  9.10E-03  0.93804
   1210.   8.264  2.62E-07  3.83E-05  4.64E-06  6.79E-04  0.00E+00  0.00E+00  4.90E-06  7.17E-04  9.11E-03  0.94009
   1212.   8.251  2.51E-07  3.69E-05  4.62E-06  6.79E-04  0.00E+00  0.00E+00  4.87E-06  7.16E-04  9.12E-03  0.94215
   1214.   8.237  2.40E-07  3.54E-05  4.61E-06  6.79E-04  0.00E+00  0.00E+00  4.85E-06  7.15E-04  9.13E-03  0.94419
   1216.   8.224  2.30E-07  3.40E-05  4.60E-06  6.80E-04  0.00E+00  0.00E+00  4.83E-06  7.14E-04  9.14E-03  0.94611
   1218.   8.210  2.21E-07  3.27E-05  4.58E-06  6.80E-04  0.00E+00  0.00E+00  4.80E-06  7.13E-04  9.15E-03  0.94802
   1220.   8.197  2.12E-07  3.16E-05  4.57E-06  6.80E-04  0.00E+00  0.00E+00  4.78E-06  7.11E-04  9.16E-03  0.94958
   1222.   8.183  2.11E-07  3.15E-05  4.54E-06  6.78E-04  0.00E+00  0.00E+00  4.75E-06  7.10E-04  9.17E-03  0.94952
   1224.   8.170  2.10E-07  3.15E-05  4.52E-06  6.77E-04  0.00E+00  0.00E+00  4.73E-06  7.09E-04  9.18E-03  0.94941
   1226.   8.157  2.10E-07  3.16E-05  4.49E-06  6.76E-04  0.00E+00  0.00E+00  4.71E-06  7.07E-04  9.19E-03  0.94912
   1228.   8.143  2.11E-07  3.19E-05  4.47E-06  6.74E-04  0.00E+00  0.00E+00  4.68E-06  7.06E-04  9.20E-03  0.94819
   1230.   8.130  2.11E-07  3.20E-05  4.44E-06  6.72E-04  0.00E+00  0.00E+00  4.65E-06  7.04E-04  9.20E-03  0.94769
   1232.   8.117  2.12E-07  3.22E-05  4.42E-06  6.70E-04  0.00E+00  0.00E+00  4.63E-06  7.02E-04  9.21E-03  0.94679
   1234.   8.104  2.16E-07  3.28E-05  4.38E-06  6.68E-04  0.00E+00  0.00E+00  4.60E-06  7.00E-04  9.22E-03  0.94487
   1236.   8.091  2.16E-07  3.30E-05  4.36E-06  6.66E-04  0.00E+00  0.00E+00  4.57E-06  6.99E-04  9.23E-03  0.94411
   1238.   8.078  2.21E-07  3.38E-05  4.32E-06  6.62E-04  0.00E+00  0.00E+00  4.54E-06  6.96E-04  9.24E-03  0.94126
   1240.   8.065  2.20E-07  3.39E-05  4.30E-06  6.61E-04  0.00E+00  0.00E+00  4.52E-06  6.95E-04  9.25E-03  0.94083
   1242.   8.052  2.27E-07  3.51E-05  4.26E-06  6.57E-04  0.00E+00  0.00E+00  4.48E-06  6.92E-04  9.26E-03  0.93658
   1244.   8.039  2.26E-07  3.50E-05  4.23E-06  6.55E-04  0.00E+00  0.00E+00  4.46E-06  6.90E-04  9.27E-03  0.93660
   1246.   8.026  2.27E-07  3.53E-05  4.21E-06  6.53E-04  0.00E+00  0.00E+00  4.43E-06  6.88E-04  9.28E-03  0.93536
   1248.   8.013  2.32E-07  3.61E-05  4.17E-06  6.50E-04  0.00E+00  0.00E+00  4.40E-06  6.86E-04  9.29E-03  0.93205
   1250.   8.000  2.25E-07  3.52E-05  4.16E-06  6.50E-04  0.00E+00  0.00E+00  4.39E-06  6.85E-04  9.29E-03  0.93478
   1252.   7.987  2.22E-07  3.48E-05  4.14E-06  6.50E-04  0.00E+00  0.00E+00  4.37E-06  6.84E-04  9.30E-03  0.93588
   1254.   7.974  2.19E-07  3.45E-05  4.13E-06  6.49E-04  0.00E+00  0.00E+00  4.34E-06  6.83E-04  9.31E-03  0.93646
   1256.   7.962  2.11E-07  3.32E-05  4.12E-06  6.50E-04  0.00E+00  0.00E+00  4.33E-06  6.83E-04  9.32E-03  0.94056
   1258.   7.949  1.98E-07  3.14E-05  4.13E-06  6.53E-04  0.00E+00  0.00E+00  4.33E-06  6.84E-04  9.33E-03  0.94660
   1260.   7.937  1.95E-07  3.10E-05  4.11E-06  6.53E-04  0.00E+00  0.00E+00  4.31E-06  6.84E-04  9.34E-03  0.94775
   1262.   7.924  2.03E-07  3.24E-05  4.07E-06  6.48E-04  0.00E+00  0.00E+00  4.27E-06  6.80E-04  9.35E-03  0.94260
   1264.   7.911  2.08E-07  3.32E-05  4.03E-06  6.44E-04  0.00E+00  0.00E+00  4.24E-06  6.78E-04  9.35E-03  0.93973
   1266.   7.899  2.12E-07  3.40E-05  4.00E-06  6.41E-04  0.00E+00  0.00E+00  4.21E-06  6.75E-04  9.36E-03  0.93702
   1268.   7.886  2.21E-07  3.56E-05  3.96E-06  6.36E-04  0.00E+00  0.00E+00  4.18E-06  6.72E-04  9.37E-03  0.93170
   1270.   7.874  2.24E-07  3.61E-05  3.93E-06  6.34E-04  0.00E+00  0.00E+00  4.15E-06  6.70E-04  9.38E-03  0.93036
   1272.   7.862  2.19E-07  3.55E-05  3.92E-06  6.34E-04  0.00E+00  0.00E+00  4.14E-06  6.70E-04  9.39E-03  0.93301
   1274.   7.849  2.20E-07  3.57E-05  3.90E-06  6.33E-04  0.00E+00  0.00E+00  4.12E-06  6.69E-04  9.40E-03  0.93298
   1276.   7.837  2.23E-07  3.63E-05  3.87E-06  6.31E-04  0.00E+00  0.00E+00  4.10E-06  6.67E-04  9.40E-03  0.93136
   1278.   7.825  2.17E-07  3.55E-05  3.87E-06  6.31E-04  0.00E+00  0.00E+00  4.08E-06  6.67E-04  9.41E-03  0.93467
   1280.   7.813  2.18E-07  3.57E-05  3.84E-06  6.30E-04  0.00E+00  0.00E+00  4.06E-06  6.65E-04  9.42E-03  0.93430
   1282.   7.800  2.13E-07  3.50E-05  3.84E-06  6.30E-04  0.00E+00  0.00E+00  4.05E-06  6.65E-04  9.43E-03  0.93725
   1284.   7.788  2.13E-07  3.50E-05  3.82E-06  6.29E-04  0.00E+00  0.00E+00  4.03E-06  6.64E-04  9.44E-03  0.93732
   1286.   7.776  2.09E-07  3.45E-05  3.80E-06  6.29E-04  0.00E+00  0.00E+00  4.01E-06  6.64E-04  9.45E-03  0.93946
   1288.   7.764  2.08E-07  3.45E-05  3.78E-06  6.28E-04  0.00E+00  0.00E+00  3.99E-06  6.62E-04  9.45E-03  0.93961
   1290.   7.752  2.06E-07  3.43E-05  3.77E-06  6.27E-04  0.00E+00  0.00E+00  3.97E-06  6.61E-04  9.46E-03  0.94060
   1292.   7.740  2.06E-07  3.44E-05  3.75E-06  6.26E-04  0.00E+00  0.00E+00  3.95E-06  6.60E-04  9.47E-03  0.94062
   1294.   7.728  2.06E-07  3.44E-05  3.73E-06  6.24E-04  0.00E+00  0.00E+00  3.93E-06  6.59E-04  9.48E-03  0.94076
   1296.   7.716  2.05E-07  3.45E-05  3.71E-06  6.23E-04  0.00E+00  0.00E+00  3.91E-06  6.57E-04  9.48E-03  0.94073
   1298.   7.704  2.06E-07  3.47E-05  3.69E-06  6.21E-04  0.00E+00  0.00E+00  3.89E-06  6.56E-04  9.49E-03  0.94023
  iv         1300
1                                             RADIANCE(WATTS/CM2-STER-XXX)
0  FREQ   WAVLEN    PATH THERMAL      SURFACE EMISSION    SURFACE REFLECTED     TOTAL RADIANCE   INTEGRAL    TOTAL
  (CM-1) (MICRN)    (CM-1)   (MICRN)    (CM-1)   (MICRN)    (CM-1)   (MICRN)    (CM-1)   (MICRN)    (CM-1)   TRANS

   1300.   7.692  2.07E-07  3.49E-05  3.67E-06  6.19E-04  0.00E+00  0.00E+00  3.87E-06  6.54E-04  9.50E-03  0.93987
   1302.   7.680  2.07E-07  3.51E-05  3.64E-06  6.18E-04  0.00E+00  0.00E+00  3.85E-06  6.53E-04  9.51E-03  0.93956
   1304.   7.669  2.08E-07  3.53E-05  3.62E-06  6.16E-04  0.00E+00  0.00E+00  3.83E-06  6.51E-04  9.52E-03  0.93920
   1306.   7.657  2.08E-07  3.55E-05  3.60E-06  6.14E-04  0.00E+00  0.00E+00  3.81E-06  6.50E-04  9.52E-03  0.93883
   1308.   7.645  2.09E-07  3.57E-05  3.58E-06  6.13E-04  0.00E+00  0.00E+00  3.79E-06  6.48E-04  9.53E-03  0.93844
   1310.   7.634  2.09E-07  3.59E-05  3.56E-06  6.11E-04  0.00E+00  0.00E+00  3.77E-06  6.47E-04  9.54E-03  0.93790
   1312.   7.622  2.11E-07  3.63E-05  3.54E-06  6.09E-04  0.00E+00  0.00E+00  3.75E-06  6.45E-04  9.55E-03  0.93689
   1314.   7.610  2.11E-07  3.64E-05  3.52E-06  6.07E-04  0.00E+00  0.00E+00  3.73E-06  6.44E-04  9.55E-03  0.93676
   1316.   7.599  2.11E-07  3.66E-05  3.50E-06  6.06E-04  0.00E+00  0.00E+00  3.71E-06  6.42E-04  9.56E-03  0.93631
   1318.   7.587  2.12E-07  3.69E-05  3.47E-06  6.04E-04  0.00E+00  0.00E+00  3.69E-06  6.40E-04  9.57E-03  0.93553
   1320.   7.576  2.13E-07  3.72E-05  3.45E-06  6.02E-04  0.00E+00  0.00E+00  3.67E-06  6.39E-04  9.58E-03  0.93485
   1322.   7.564  2.14E-07  3.74E-05  3.43E-06  6.00E-04  0.00E+00  0.00E+00  3.65E-06  6.37E-04  9.58E-03  0.93419
   1324.   7.553  2.15E-07  3.76E-05  3.41E-06  5.98E-04  0.00E+00  0.00E+00  3.63E-06  6.36E-04  9.59E-03  0.93365
   1326.   7.541  2.15E-07  3.79E-05  3.39E-06  5.96E-04  0.00E+00  0.00E+00  3.61E-06  6.34E-04  9.60E-03  0.93309
   1328.   7.530  2.16E-07  3.81E-05  3.37E-06  5.94E-04  0.00E+00  0.00E+00  3.59E-06  6.32E-04  9.60E-03  0.93248
   1330.   7.519  2.17E-07  3.84E-05  3.35E-06  5.92E-04  0.00E+00  0.00E+00  3.57E-06  6.31E-04  9.61E-03  0.93169
   1332.   7.508  2.18E-07  3.87E-05  3.33E-06  5.90E-04  0.00E+00  0.00E+00  3.55E-06  6.29E-04  9.62E-03  0.93084
   1334.   7.496  2.19E-07  3.90E-05  3.31E-06  5.88E-04  0.00E+00  0.00E+00  3.53E-06  6.27E-04  9.63E-03  0.93007
   1336.   7.485  2.21E-07  3.95E-05  3.28E-06  5.86E-04  0.00E+00  0.00E+00  3.50E-06  6.25E-04  9.63E-03  0.92851
   1338.   7.474  2.23E-07  4.00E-05  3.26E-06  5.83E-04  0.00E+00  0.00E+00  3.48E-06  6.23E-04  9.64E-03  0.92693
   1340.   7.463  2.25E-07  4.04E-05  3.24E-06  5.81E-04  0.00E+00  0.00E+00  3.46E-06  6.22E-04  9.65E-03  0.92568
   1342.   7.452  2.29E-07  4.12E-05  3.21E-06  5.78E-04  0.00E+00  0.00E+00  3.44E-06  6.19E-04  9.65E-03  0.92269
   1344.   7.440  2.33E-07  4.21E-05  3.18E-06  5.75E-04  0.00E+00  0.00E+00  3.41E-06  6.17E-04  9.66E-03  0.91970
   1346.   7.429  2.34E-07  4.24E-05  3.16E-06  5.72E-04  0.00E+00  0.00E+00  3.39E-06  6.15E-04  9.67E-03  0.91833
   1348.   7.418  2.40E-07  4.37E-05  3.12E-06  5.68E-04  0.00E+00  0.00E+00  3.36E-06  6.11E-04  9.67E-03  0.91347
   1350.   7.407  2.41E-07  4.39E-05  3.10E-06  5.66E-04  0.00E+00  0.00E+00  3.34E-06  6.10E-04  9.68E-03  0.91265
   1352.   7.396  2.46E-07  4.50E-05  3.07E-06  5.61E-04  0.00E+00  0.00E+00  3.32E-06  6.06E-04  9.69E-03  0.90790
   1354.   7.386  2.44E-07  4.47E-05  3.06E-06  5.61E-04  0.00E+00  0.00E+00  3.30E-06  6.05E-04  9.69E-03  0.90909
   1356.   7.375  2.47E-07  4.55E-05  3.03E-06  5.57E-04  0.00E+00  0.00E+00  3.28E-06  6.02E-04  9.70E-03  0.90561
   1358.   7.364  2.43E-07  4.47E-05  3.02E-06  5.58E-04  0.00E+00  0.00E+00  3.27E-06  6.02E-04  9.71E-03  0.90888
   1360.   7.353  2.42E-07  4.48E-05  3.01E-06  5.56E-04  0.00E+00  0.00E+00  3.25E-06  6.01E-04  9.71E-03  0.90854
   1362.   7.342  2.36E-07  4.37E-05  3.00E-06  5.57E-04  0.00E+00  0.00E+00  3.24E-06  6.01E-04  9.72E-03  0.91328
   1364.   7.331  2.31E-07  4.29E-05  3.00E-06  5.58E-04  0.00E+00  0.00E+00  3.23E-06  6.01E-04  9.73E-03  0.91676
   1366.   7.321  2.26E-07  4.22E-05  2.99E-06  5.58E-04  0.00E+00  0.00E+00  3.22E-06  6.01E-04  9.73E-03  0.91993
   1368.   7.310  2.31E-07  4.32E-05  2.96E-06  5.54E-04  0.00E+00  0.00E+00  3.19E-06  5.98E-04  9.74E-03  0.91598
   1370.   7.299  2.38E-07  4.47E-05  2.93E-06  5.49E-04  0.00E+00  0.00E+00  3.16E-06  5.94E-04  9.75E-03  0.90942
   1372.   7.289  2.41E-07  4.54E-05  2.90E-06  5.46E-04  0.00E+00  0.00E+00  3.14E-06  5.91E-04  9.75E-03  0.90659
   1374.   7.278  2.47E-07  4.67E-05  2.87E-06  5.41E-04  0.00E+00  0.00E+00  3.11E-06  5.88E-04  9.76E-03  0.90133
   1376.   7.267  2.45E-07  4.65E-05  2.85E-06  5.40E-04  0.00E+00  0.00E+00  3.10E-06  5.87E-04  9.76E-03  0.90252
   1378.   7.257  2.49E-07  4.73E-05  2.83E-06  5.37E-04  0.00E+00  0.00E+00  3.08E-06  5.84E-04  9.77E-03  0.89878
   1380.   7.246  2.45E-07  4.67E-05  2.82E-06  5.37E-04  0.00E+00  0.00E+00  3.07E-06  5.84E-04  9.78E-03  0.90181
   1382.   7.236  2.44E-07  4.66E-05  2.81E-06  5.36E-04  0.00E+00  0.00E+00  3.05E-06  5.83E-04  9.78E-03  0.90275
   1384.   7.225  2.44E-07  4.68E-05  2.79E-06  5.34E-04  0.00E+00  0.00E+00  3.03E-06  5.81E-04  9.79E-03  0.90194
   1386.   7.215  2.38E-07  4.58E-05  2.79E-06  5.35E-04  0.00E+00  0.00E+00  3.03E-06  5.81E-04  9.79E-03  0.90643
   1388.   7.205  2.36E-07  4.54E-05  2.78E-06  5.35E-04  0.00E+00  0.00E+00  3.01E-06  5.80E-04  9.80E-03  0.90788
   1390.   7.194  2.33E-07  4.50E-05  2.76E-06  5.34E-04  0.00E+00  0.00E+00  3.00E-06  5.79E-04  9.81E-03  0.90933
   1392.   7.184  2.30E-07  4.45E-05  2.75E-06  5.34E-04  0.00E+00  0.00E+00  2.98E-06  5.78E-04  9.81E-03  0.91099
   1394.   7.174  2.28E-07  4.43E-05  2.74E-06  5.32E-04  0.00E+00  0.00E+00  2.97E-06  5.77E-04  9.82E-03  0.91147
   1396.   7.163  2.24E-07  4.36E-05  2.73E-06  5.32E-04  0.00E+00  0.00E+00  2.95E-06  5.76E-04  9.82E-03  0.91367
   1398.   7.153  2.21E-07  4.32E-05  2.72E-06  5.31E-04  0.00E+00  0.00E+00  2.94E-06  5.74E-04  9.83E-03  0.91443
  iv         1400
1                                             RADIANCE(WATTS/CM2-STER-XXX)
0  FREQ   WAVLEN    PATH THERMAL      SURFACE EMISSION    SURFACE REFLECTED     TOTAL RADIANCE   INTEGRAL    TOTAL
  (CM-1) (MICRN)    (CM-1)   (MICRN)    (CM-1)   (MICRN)    (CM-1)   (MICRN)    (CM-1)   (MICRN)    (CM-1)   TRANS

   1400.   7.143  2.19E-07  4.30E-05  2.70E-06  5.30E-04  0.00E+00  0.00E+00  2.92E-06  5.73E-04  9.84E-03  0.91477
   1402.   7.133  2.17E-07  4.26E-05  2.69E-06  5.29E-04  0.00E+00  0.00E+00  2.91E-06  5.71E-04  9.84E-03  0.91591
   1404.   7.123  2.15E-07  4.24E-05  2.68E-06  5.28E-04  0.00E+00  0.00E+00  2.89E-06  5.70E-04  9.85E-03  0.91611
   1406.   7.112  2.13E-07  4.21E-05  2.66E-06  5.26E-04  0.00E+00  0.00E+00  2.87E-06  5.68E-04  9.85E-03  0.91649
   1408.   7.102  2.11E-07  4.19E-05  2.65E-06  5.25E-04  0.00E+00  0.00E+00  2.86E-06  5.67E-04  9.86E-03  0.91663
   1410.   7.092  2.10E-07  4.18E-05  2.63E-06  5.23E-04  0.00E+00  0.00E+00  2.84E-06  5.65E-04  9.86E-03  0.91671
   1412.   7.082  2.09E-07  4.17E-05  2.62E-06  5.22E-04  0.00E+00  0.00E+00  2.83E-06  5.63E-04  9.87E-03  0.91656
   1414.   7.072  2.08E-07  4.16E-05  2.60E-06  5.20E-04  0.00E+00  0.00E+00  2.81E-06  5.62E-04  9.88E-03  0.91639
   1416.   7.062  2.08E-07  4.16E-05  2.58E-06  5.18E-04  0.00E+00  0.00E+00  2.79E-06  5.60E-04  9.88E-03  0.91583
   1418.   7.052  2.07E-07  4.17E-05  2.57E-06  5.16E-04  0.00E+00  0.00E+00  2.78E-06  5.58E-04  9.89E-03  0.91510
   1420.   7.042  2.08E-07  4.19E-05  2.55E-06  5.14E-04  0.00E+00  0.00E+00  2.76E-06  5.56E-04  9.89E-03  0.91416
   1422.   7.032  2.09E-07  4.22E-05  2.53E-06  5.12E-04  0.00E+00  0.00E+00  2.74E-06  5.54E-04  9.90E-03  0.91261
   1424.   7.022  2.10E-07  4.26E-05  2.51E-06  5.09E-04  0.00E+00  0.00E+00  2.72E-06  5.52E-04  9.90E-03  0.91083
   1426.   7.013  2.13E-07  4.33E-05  2.49E-06  5.06E-04  0.00E+00  0.00E+00  2.70E-06  5.50E-04  9.91E-03  0.90814
   1428.   7.003  2.17E-07  4.42E-05  2.47E-06  5.03E-04  0.00E+00  0.00E+00  2.68E-06  5.47E-04  9.91E-03  0.90453
   1430.   6.993  2.22E-07  4.53E-05  2.44E-06  4.99E-04  0.00E+00  0.00E+00  2.66E-06  5.44E-04  9.92E-03  0.90047
   1432.   6.983  2.30E-07  4.72E-05  2.41E-06  4.94E-04  0.00E+00  0.00E+00  2.64E-06  5.41E-04  9.93E-03  0.89369
   1434.   6.974  2.39E-07  4.92E-05  2.38E-06  4.88E-04  0.00E+00  0.00E+00  2.61E-06  5.38E-04  9.93E-03  0.88649
   1436.   6.964  2.45E-07  5.06E-05  2.35E-06  4.84E-04  0.00E+00  0.00E+00  2.59E-06  5.35E-04  9.94E-03  0.88149
   1438.   6.954  2.48E-07  5.14E-05  2.33E-06  4.81E-04  0.00E+00  0.00E+00  2.58E-06  5.33E-04  9.94E-03  0.87863
   1440.   6.944  2.51E-07  5.21E-05  2.31E-06  4.78E-04  0.00E+00  0.00E+00  2.56E-06  5.30E-04  9.95E-03  0.87580
   1442.   6.935  2.54E-07  5.29E-05  2.29E-06  4.75E-04  0.00E+00  0.00E+00  2.54E-06  5.28E-04  9.95E-03  0.87312
   1444.   6.925  2.57E-07  5.36E-05  2.27E-06  4.72E-04  0.00E+00  0.00E+00  2.52E-06  5.26E-04  9.96E-03  0.87042
   1446.   6.916  2.59E-07  5.42E-05  2.25E-06  4.69E-04  0.00E+00  0.00E+00  2.50E-06  5.24E-04  9.96E-03  0.86785
   1448.   6.906  2.61E-07  5.48E-05  2.23E-06  4.67E-04  0.00E+00  0.00E+00  2.49E-06  5.22E-04  9.97E-03  0.86544
   1450.   6.897  2.64E-07  5.54E-05  2.21E-06  4.64E-04  0.00E+00  0.00E+00  2.47E-06  5.19E-04  9.97E-03  0.86297
   1452.   6.887  2.66E-07  5.60E-05  2.19E-06  4.61E-04  0.00E+00  0.00E+00  2.45E-06  5.17E-04  9.98E-03  0.86046
   1454.   6.878  2.68E-07  5.66E-05  2.17E-06  4.58E-04  0.00E+00  0.00E+00  2.44E-06  5.15E-04  9.98E-03  0.85795
   1456.   6.868  2.71E-07  5.74E-05  2.15E-06  4.55E-04  0.00E+00  0.00E+00  2.42E-06  5.13E-04  9.99E-03  0.85474
   1458.   6.859  2.74E-07  5.83E-05  2.12E-06  4.52E-04  0.00E+00  0.00E+00  2.40E-06  5.10E-04  9.99E-03  0.85069
   1460.   6.849  2.77E-07  5.91E-05  2.10E-06  4.48E-04  0.00E+00  0.00E+00  2.38E-06  5.07E-04  9.99E-03  0.84690
   1462.   6.840  2.81E-07  6.00E-05  2.08E-06  4.45E-04  0.00E+00  0.00E+00  2.36E-06  5.05E-04  1.00E-02  0.84271
   1464.   6.831  2.84E-07  6.09E-05  2.06E-06  4.41E-04  0.00E+00  0.00E+00  2.34E-06  5.02E-04  1.00E-02  0.83848
   1466.   6.821  2.86E-07  6.16E-05  2.04E-06  4.38E-04  0.00E+00  0.00E+00  2.32E-06  4.99E-04  1.00E-02  0.83488
   1468.   6.812  2.88E-07  6.21E-05  2.02E-06  4.35E-04  0.00E+00  0.00E+00  2.31E-06  4.97E-04  1.00E-02  0.83189
   1470.   6.803  2.90E-07  6.26E-05  2.00E-06  4.32E-04  0.00E+00  0.00E+00  2.29E-06  4.94E-04  1.00E-02  0.82878
   1472.   6.793  2.90E-07  6.29E-05  1.98E-06  4.29E-04  0.00E+00  0.00E+00  2.27E-06  4.92E-04  1.00E-02  0.82671
   1474.   6.784  2.91E-07  6.33E-05  1.96E-06  4.27E-04  0.00E+00  0.00E+00  2.26E-06  4.90E-04  1.00E-02  0.82451
   1476.   6.775  2.93E-07  6.37E-05  1.95E-06  4.24E-04  0.00E+00  0.00E+00  2.24E-06  4.88E-04  1.00E-02  0.82200
   1478.   6.766  2.94E-07  6.43E-05  1.93E-06  4.21E-04  0.00E+00  0.00E+00  2.22E-06  4.86E-04  1.00E-02  0.81917
   1480.   6.757  2.96E-07  6.48E-05  1.91E-06  4.18E-04  0.00E+00  0.00E+00  2.21E-06  4.83E-04  1.00E-02  0.81625
   1482.   6.748  2.97E-07  6.53E-05  1.89E-06  4.15E-04  0.00E+00  0.00E+00  2.19E-06  4.81E-04  1.00E-02  0.81253
   1484.   6.739  2.98E-07  6.57E-05  1.87E-06  4.12E-04  0.00E+00  0.00E+00  2.17E-06  4.78E-04  1.00E-02  0.80918
   1486.   6.729  2.99E-07  6.60E-05  1.85E-06  4.09E-04  0.00E+00  0.00E+00  2.15E-06  4.75E-04  1.01E-02  0.80572
   1488.   6.720  3.00E-07  6.64E-05  1.83E-06  4.06E-04  0.00E+00  0.00E+00  2.13E-06  4.72E-04  1.01E-02  0.80225
   1490.   6.711  3.01E-07  6.68E-05  1.81E-06  4.03E-04  0.00E+00  0.00E+00  2.12E-06  4.70E-04  1.01E-02  0.79885
   1492.   6.702  3.03E-07  6.73E-05  1.80E-06  4.00E-04  0.00E+00  0.00E+00  2.10E-06  4.67E-04  1.01E-02  0.79588
   1494.   6.693  3.04E-07  6.79E-05  1.78E-06  3.97E-04  0.00E+00  0.00E+00  2.08E-06  4.65E-04  1.01E-02  0.79277
   1496.   6.684  3.06E-07  6.85E-05  1.76E-06  3.95E-04  0.00E+00  0.00E+00  2.07E-06  4.63E-04  1.01E-02  0.78994
   1498.   6.676  3.07E-07  6.90E-05  1.75E-06  3.92E-04  0.00E+00  0.00E+00  2.05E-06  4.61E-04  1.01E-02  0.78735
  iv         1500
1                                             RADIANCE(WATTS/CM2-STER-XXX)
0  FREQ   WAVLEN    PATH THERMAL      SURFACE EMISSION    SURFACE REFLECTED     TOTAL RADIANCE   INTEGRAL    TOTAL
  (CM-1) (MICRN)    (CM-1)   (MICRN)    (CM-1)   (MICRN)    (CM-1)   (MICRN)    (CM-1)   (MICRN)    (CM-1)   TRANS

   1500.   6.667  3.09E-07  6.94E-05  1.73E-06  3.89E-04  0.00E+00  0.00E+00  2.04E-06  4.59E-04  1.01E-02  0.78473
0INTEGRATED ABSORPTION FROM  100 TO 1500 CM-1 =    292.70 CM-1
 AVERAGE TRANSMITTANCE =0.7909

0INTEGRATED RADIANCE =  1.008E-02 WATTS CM-2 STER-1
 MINIMUM RADIANCE    =  1.802E-06 WATTS CM-2 STER-1 (CM-1)-1 AT      100.0 CM-1
 MAXIMUM RADIANCE    =  1.325E-05 WATTS CM-2 STER-1 (CM-1)-1 AT      542.0 CM-1
 BOUNDARY TEMPERATURE =     288.20 K
 BOUNDARY EMISSIVITY =       0.980
0 CARD 5 *****    0
